DATE 2017:094:09:49:23 obsn  34 az 158 el 22 freq_MHz  1420.4000 Tsys 153.104 Tant 27.685 vlsr  -39.05 glat -0.205 glon  0.117 azoff 0.00 eloff 0.00 source G0.0 
Fstart 1419.397 fstop 1421.403 spacing 0.009375 bw    2.400 fbw    2.000 MHz nfreq 256 nsam 5242880 npoint 214 integ     2 sigma    1.070 bsw 0
Spectrum      2 integration periods
 270.655  266.249  269.104  264.065  265.724  261.848  267.873  266.996  268.112  262.018  264.248  265.497  267.824  274.998  268.831  267.229  264.700  266.008  265.201  265.656  267.860  263.789  268.604  269.169  269.539  265.484  269.055  267.772  269.456  267.190  271.785  271.370  266.639  265.037  266.410  266.695  263.148  267.690  267.221  265.970  267.205  267.578  270.172  268.721  275.081  268.061  269.866  269.336  267.326  269.369  267.897  270.350  268.580  270.191  273.593  270.782  268.639  268.909  272.140  269.155  271.276  274.282  274.801  271.010  272.931  275.358  273.299  273.568  275.068  282.554  280.848  308.136  275.465  275.389  268.229  277.668  274.411  270.107  270.536  268.831  270.440  274.725  271.205  272.851  272.600  273.839  271.296  270.354  274.144  276.463  274.311  273.758  273.965  271.017  276.391  276.913  273.122  276.648  269.254  276.450  272.104  273.106  274.303  279.408  281.889  280.065  278.346  282.771  274.844  276.532  275.581  275.499  276.425  275.304  275.503  276.228  282.017  278.776  281.344  283.630  289.959  289.951  293.857  294.257  294.403  295.880  300.830  311.635  307.876  305.959  308.232  314.069  309.381  314.407  309.955  308.711  304.906  299.970  304.593  294.636  292.761  291.480  289.972  292.515  288.284  281.281  288.144  283.724  281.292  280.019  280.886  282.408  278.813  282.938  280.166  291.234  282.096  281.034  283.150  279.299  281.386  282.586  280.498  281.357  282.095  288.151  282.670  287.084  283.124  289.754  283.191  288.632  286.924  279.150  282.691  284.277  283.342  281.827  283.663  281.472  280.417  282.535  281.031  280.144  279.978  279.131  279.469  282.704  280.423  277.637  278.404  280.892  276.822  279.963  284.624  280.318  282.086  279.648  283.538  280.903  285.858  278.771  284.706  281.919  283.236  280.831  282.780  290.620  287.150  283.188  281.563  286.393  285.269  284.848 
DATE 2017:094:09:49:36 obsn  35 az 158 el 22 freq_MHz  1420.4000 Tsys 153.104 Tant 28.016 vlsr  -39.05 glat -0.205 glon  0.117 azoff 0.00 eloff 0.00 source G0.0 
Fstart 1419.397 fstop 1421.403 spacing 0.009375 bw    2.400 fbw    2.000 MHz nfreq 256 nsam 5242880 npoint 214 integ    13 sigma    0.437 bsw 0
Spectrum     12 integration periods
 189.414  189.124  189.351  188.880  188.418  187.152  187.664  188.703  188.700  188.194  187.166  187.603  188.065  189.774  188.065  187.938  187.874  187.871  187.624  187.969  187.859  187.668  188.615  188.243  188.416  188.788  188.353  187.848  188.328  188.725  189.068  188.798  189.298  188.462  187.618  187.752  187.833  188.530  188.043  188.225  187.998  188.606  188.711  188.957  189.787  187.993  189.484  189.522  188.962  189.535  188.942  189.391  188.769  188.856  190.515  189.555  190.930  190.213  189.949  189.464  189.469  190.601  191.465  192.196  191.075  190.684  190.057  190.785  193.527  212.203  203.054  202.061  191.343  192.167  190.310  191.818  191.721  190.474  190.625  190.249  190.311  191.141  190.467  190.757  190.740  190.908  190.573  190.822  190.935  192.035  191.167  190.973  190.754  190.420  191.920  191.551  190.601  191.748  190.273  191.383  191.339  190.964  190.715  192.531  192.182  192.834  191.368  193.663  191.799  192.354  192.243  192.584  192.867  193.984  196.195  196.665  198.505  199.021  202.824  205.264  208.653  212.677  214.380  218.710  223.485  230.131  237.396  244.884  245.686  241.332  243.788  254.926  255.835  251.871  246.865  240.532  235.265  230.129  227.806  223.112  219.511  216.203  213.834  211.458  207.836  204.530  204.922  200.757  199.435  197.764  197.873  196.271  196.878  195.129  194.768  198.741  194.380  194.095  195.297  194.335  195.659  195.697  195.851  195.807  196.030  197.733  196.022  197.006  196.131  198.007  195.151  196.461  195.265  194.872  195.554  194.616  194.463  194.368  193.907  193.510  193.426  192.357  193.417  193.510  193.046  191.739  193.169  193.199  192.886  191.931  192.462  192.786  191.590  192.838  193.258  191.189  192.934  191.893  192.744  191.597  191.634  190.898  192.481  192.794  193.145  193.103  193.525  194.394  193.533  193.055  193.166  194.893  194.292  194.776 
DATE 2017:094:09:49:49 obsn  36 az 158 el 22 freq_MHz  1420.4000 Tsys 153.104 Tant 27.653 vlsr  -39.05 glat -0.205 glon  0.117 azoff 0.00 eloff 0.00 source G0.0 
Fstart 1419.397 fstop 1421.403 spacing 0.009375 bw    2.400 fbw    2.000 MHz nfreq 256 nsam 5242880 npoint 214 integ    24 sigma    0.323 bsw 0
Spectrum     22 integration periods
 182.521  182.321  181.683  181.748  181.460  180.376  180.955  181.621  181.367  181.365  180.378  180.732  180.827  182.189  181.052  180.905  181.223  181.004  180.178  180.837  180.818  180.470  180.881  180.873  180.891  180.903  181.214  180.916  180.855  181.507  181.284  181.343  181.594  180.757  180.615  180.751  180.352  181.260  180.741  181.127  180.550  181.090  181.101  181.785  181.926  181.203  182.288  181.749  181.546  182.069  182.410  182.171  181.240  181.905  183.122  181.786  182.884  182.696  183.079  182.189  181.652  182.524  183.229  184.094  182.697  183.030  182.563  183.035  185.861  205.682  192.080  192.540  183.739  183.817  182.650  184.142  183.788  182.894  182.830  183.415  183.033  183.549  182.744  183.323  183.591  183.386  183.667  183.979  183.668  184.152  183.870  183.086  183.489  183.117  183.792  183.773  183.740  183.680  182.955  183.548  183.683  183.441  183.488  184.433  184.105  185.181  183.989  185.244  184.164  184.883  185.011  185.289  185.972  186.784  188.577  189.715  191.155  192.328  196.161  198.260  201.514  205.274  207.689  211.905  217.281  223.814  232.037  239.342  240.635  235.884  238.114  249.117  250.929  247.091  241.568  234.995  228.943  223.770  220.701  216.266  212.785  209.392  206.781  204.306  200.300  198.271  196.586  193.938  192.804  190.682  190.327  188.937  188.955  187.340  187.376  190.397  187.392  186.805  187.351  187.310  187.578  188.018  188.214  188.181  187.972  189.108  188.539  188.894  187.867  188.933  187.766  188.620  187.247  187.124  187.148  186.389  186.279  186.016  185.897  185.212  185.385  184.519  185.296  185.414  185.128  184.401  184.967  185.011  184.866  184.253  185.180  184.687  183.990  184.621  185.538  183.502  184.296  184.459  184.592  183.658  184.012  183.596  184.593  184.834  184.522  185.149  185.628  185.583  185.294  185.017  185.506  186.627  185.978  186.354 
DATE 2017:094:09:50:13 obsn  37 az 149 el 28 freq_MHz  1420.4000 Tsys 153.104 Tant 27.457 vlsr  -42.20 glat -0.205 glon 10.118 azoff 0.00 eloff 0.00 source G10.0 
Fstart 1419.397 fstop 1421.403 spacing 0.009375 bw    2.400 fbw    2.000 MHz nfreq 256 nsam 5242880 npoint 214 integ     7 sigma    0.618 bsw 0
Spectrum      6 integration periods
 174.401  173.515  174.998  174.532  171.440  171.526  172.131  173.611  171.995  172.299  171.446  174.553  173.865  173.381  171.851  173.250  173.986  173.316  172.265  173.044  173.884  171.297  172.273  172.457  173.651  173.021  172.758  170.738  174.238  171.317  172.216  169.737  171.181  173.730  171.797  171.749  171.842  173.483  171.039  171.749  172.521  174.198  172.296  173.382  173.596  174.681  173.050  173.617  173.279  174.693  175.920  173.426  174.347  174.070  176.286  175.403  174.937  174.687  175.780  175.799  173.382  175.549  177.277  175.798  174.663  173.683  175.266  175.252  177.705  192.049  174.844  183.616  174.194  175.271  174.568  176.388  174.686  173.644  173.681  174.370  173.052  174.935  173.397  173.329  175.912  174.276  174.718  174.038  175.372  174.697  174.210  174.488  174.543  173.842  172.956  173.787  177.963  173.784  174.935  174.549  174.365  175.389  175.079  175.929  175.841  178.345  175.949  176.806  176.806  182.295  180.514  183.112  183.100  186.001  188.355  190.674  191.251  193.100  199.690  199.228  203.343  207.818  211.909  214.213  218.246  223.347  228.554  230.997  230.972  229.552  221.881  223.900  228.942  228.052  223.459  216.758  211.000  209.548  207.704  208.809  204.749  203.009  200.569  199.614  195.239  190.268  188.748  185.390  184.407  180.388  178.679  176.081  178.194  174.731  174.870  176.880  174.606  174.613  173.183  174.247  176.880  174.041  175.007  175.061  174.473  175.823  175.574  175.599  174.783  175.250  174.919  174.619  174.697  178.469  175.474  173.546  175.153  173.496  173.715  173.447  173.570  174.279  176.682  174.113  173.594  173.397  172.853  172.748  172.836  173.503  174.906  171.814  172.252  172.290  174.163  172.947  173.185  171.929  171.793  172.579  171.708  170.635  172.521  174.791  172.970  181.466  178.185  172.238  173.814  173.457  173.086  175.119  173.736  173.932 
DATE 2017:094:09:50:26 obsn  38 az 149 el 28 freq_MHz  1420.4000 Tsys 153.104 Tant 26.168 vlsr  -42.20 glat -0.205 glon 10.118 azoff 0.00 eloff 0.00 source G10.0 
Fstart 1419.397 fstop 1421.403 spacing 0.009375 bw    2.400 fbw    2.000 MHz nfreq 256 nsam 5242880 npoint 214 integ    17 sigma    0.378 bsw 0
Spectrum     16 integration periods
 173.374  173.203  173.500  174.085  171.528  171.326  171.615  172.864  171.309  171.622  170.857  172.384  172.201  172.260  171.382  172.836  173.080  171.937  171.842  172.116  172.870  171.525  172.124  171.601  172.985  171.777  171.740  171.152  174.223  171.045  171.346  170.966  171.744  172.492  171.634  171.585  171.309  172.788  171.708  171.530  172.351  174.227  172.378  172.880  172.767  173.790  172.805  173.574  173.481  174.091  175.367  173.068  173.676  173.873  175.001  174.715  174.246  173.471  174.127  174.406  173.819  174.351  176.747  174.246  173.429  173.623  173.681  174.523  175.486  190.817  175.524  181.587  174.245  174.903  173.720  175.682  173.414  172.636  172.940  172.688  172.708  173.730  172.996  172.319  175.362  173.381  173.616  173.342  175.197  174.458  173.248  173.880  174.200  174.003  173.862  173.633  176.518  173.255  174.444  173.740  173.694  174.282  174.758  174.670  175.181  177.816  176.358  176.773  178.083  181.043  180.389  181.999  183.102  184.930  187.202  189.246  190.589  193.754  200.072  200.285  204.761  208.572  212.419  214.855  218.308  222.151  227.725  229.168  229.487  228.153  219.077  220.181  226.282  226.581  219.835  213.977  209.231  207.563  205.450  207.268  204.226  202.311  200.054  198.376  194.723  190.441  187.592  184.516  182.646  180.030  177.497  175.617  177.350  173.995  174.042  175.403  172.909  172.523  172.424  172.485  175.832  172.534  172.934  172.846  172.324  173.150  173.255  172.970  173.050  174.207  173.023  172.783  172.690  175.708  172.721  171.599  173.089  171.957  171.698  171.557  172.055  171.902  173.994  171.899  172.079  171.357  171.894  171.621  171.529  172.461  172.759  170.876  171.743  170.930  173.165  171.720  171.751  171.023  171.583  171.436  171.057  170.183  170.686  173.933  171.708  181.613  179.258  171.392  172.075  171.552  171.292  173.464  172.117  171.932 
DATE 2017:094:09:50:39 obsn  39 az 149 el 28 freq_MHz  1420.4000 Tsys 153.104 Tant 26.600 vlsr  -42.20 glat -0.205 glon 10.118 azoff 0.00 eloff 0.00 source G10.0 
Fstart 1419.397 fstop 1421.403 spacing 0.009375 bw    2.400 fbw    2.000 MHz nfreq 256 nsam 5242880 npoint 214 integ    28 sigma    0.297 bsw 0
Spectrum     26 integration periods
 173.462  172.447  172.974  173.690  171.746  171.277  171.471  172.987  171.123  171.286  171.616  171.912  172.255  172.038  171.206  172.778  173.242  171.598  171.452  171.945  172.917  171.779  171.878  171.272  172.687  172.010  171.697  171.259  173.990  170.875  170.996  170.889  171.664  171.933  171.513  171.187  171.586  172.955  172.040  171.683  171.770  174.206  172.191  172.367  172.656  173.460  172.756  173.258  173.420  173.816  175.516  173.219  173.605  173.678  174.991  174.244  173.991  173.602  174.290  173.851  173.520  173.963  176.701  174.129  173.424  173.696  173.424  174.430  175.530  190.052  174.517  180.758  174.172  174.611  173.541  175.495  173.451  172.346  172.926  172.648  172.613  172.813  172.620  172.173  175.071  172.936  173.132  173.415  175.177  174.097  173.102  173.786  173.823  173.450  173.555  173.687  176.467  172.947  173.834  173.443  173.563  173.995  174.380  174.551  175.107  177.833  176.090  176.566  178.315  180.505  180.004  181.938  183.039  185.103  186.729  188.726  190.832  194.269  200.274  200.478  204.699  208.770  212.322  215.092  218.708  222.025  227.383  228.466  229.162  227.841  218.661  219.582  225.382  225.512  218.925  212.734  208.813  206.515  205.356  207.386  204.139  202.510  200.136  198.004  194.228  190.199  187.541  184.350  182.376  179.536  177.307  175.624  177.293  174.008  173.754  175.459  172.727  172.028  172.011  171.795  174.810  171.999  172.291  172.060  172.116  172.864  172.743  172.234  172.334  174.104  172.976  172.609  172.563  175.033  172.005  171.116  172.018  171.379  171.657  171.334  171.717  171.438  173.809  171.609  171.363  170.949  171.657  171.205  171.218  171.631  172.203  170.995  171.443  170.712  172.913  170.922  171.375  171.009  170.950  171.232  170.537  170.229  170.702  173.667  171.308  181.758  179.414  171.086  171.496  171.850  171.761  173.281  171.723  171.423 
DATE 2017:094:09:51:11 obsn  40 az 139 el 33 freq_MHz  1420.4000 Tsys 153.104 Tant 23.102 vlsr  -44.08 glat -0.200 glon 20.118 azoff 0.00 eloff 0.00 source G20.0 
Fstart 1419.397 fstop 1421.403 spacing 0.009375 bw    2.400 fbw    2.000 MHz nfreq 256 nsam 5242880 npoint 214 integ    11 sigma    0.478 bsw 0
Spectrum     10 integration periods
 167.287  167.176  166.620  166.882  166.818  166.743  167.050  166.795  165.942  166.556  166.470  166.436  166.290  167.086  166.272  166.950  166.680  165.844  165.733  166.629  166.639  166.916  166.925  166.520  166.629  166.732  166.062  165.946  167.693  165.751  165.164  165.327  166.763  166.409  166.442  165.947  165.946  165.597  166.302  166.755  166.004  166.572  166.031  165.674  166.744  166.462  167.303  166.969  167.523  166.187  166.800  167.025  166.255  167.427  168.250  167.584  167.680  166.740  167.217  167.007  166.663  167.205  168.287  169.016  168.019  168.610  168.418  169.910  171.617  204.473  173.145  176.893  172.299  172.513  171.373  172.297  171.912  171.423  171.997  172.883  171.504  171.440  171.096  172.414  173.124  172.356  173.578  172.472  174.580  174.073  172.953  174.088  174.670  174.083  172.880  174.529  175.871  175.898  176.448  177.907  177.964  179.036  180.429  180.701  182.215  184.983  184.410  186.095  187.022  187.980  189.262  188.518  190.955  191.213  192.982  194.053  195.008  197.288  200.106  201.635  205.439  207.562  210.693  213.143  217.885  217.800  219.245  218.706  215.113  214.959  212.825  213.984  215.633  217.155  215.779  207.495  199.074  192.901  190.701  190.143  188.218  188.309  186.774  186.097  187.080  187.705  187.404  185.884  184.862  182.982  182.124  179.979  179.362  177.271  174.235  172.579  170.909  170.445  168.739  168.821  168.481  168.152  168.058  167.990  168.311  169.009  168.094  168.775  168.182  167.897  167.579  168.768  167.753  169.860  167.838  167.662  168.150  169.457  168.501  168.514  168.620  168.694  169.490  168.741  167.502  167.995  169.038  169.824  168.245  167.787  167.370  168.398  169.395  167.343  168.565  167.433  168.050  168.033  167.824  169.240  168.078  168.346  167.664  169.099  168.539  169.938  171.252  168.804  168.777  169.198  169.621  170.063  168.962  169.273 
DATE 2017:094:09:51:24 obsn  41 az 139 el 33 freq_MHz  1420.4000 Tsys 153.104 Tant 18.524 vlsr  -44.08 glat -0.200 glon 20.118 azoff 0.00 eloff 0.00 source G20.0 
Fstart 1419.397 fstop 1421.403 spacing 0.009375 bw    2.400 fbw    2.000 MHz nfreq 256 nsam 5242880 npoint 214 integ    22 sigma    0.338 bsw 0
Spectrum     20 integration periods
 165.623  165.510  164.998  165.266  165.235  164.809  165.545  165.158  164.407  164.606  164.819  164.055  164.490  165.404  164.550  164.851  165.049  164.293  164.288  164.956  164.570  165.068  165.181  164.567  165.087  164.771  164.501  164.459  164.938  163.863  163.776  164.177  164.114  164.584  164.251  164.327  164.504  163.529  164.050  164.845  164.024  164.371  164.279  164.365  164.606  164.588  164.769  164.766  165.539  165.033  164.629  164.745  164.569  165.405  166.085  165.319  165.413  164.880  165.528  165.426  165.132  165.566  166.270  167.083  165.776  166.795  166.875  168.414  170.197  203.522  172.463  173.963  170.012  170.285  170.087  170.765  170.205  170.010  170.442  170.836  170.293  170.172  169.648  170.343  170.810  170.936  171.167  171.534  172.001  172.414  171.744  172.110  172.391  172.115  172.002  172.714  174.065  174.195  175.825  176.231  177.324  177.725  178.699  179.897  181.341  183.606  182.980  184.670  185.902  186.312  187.130  187.997  189.101  190.383  191.864  192.736  193.763  195.699  197.956  199.634  202.996  206.176  209.027  211.158  215.004  215.583  217.138  216.058  213.451  211.896  210.934  211.581  213.471  214.902  213.513  204.651  196.135  190.648  187.964  187.522  185.784  185.676  184.555  183.649  185.130  185.183  185.335  184.650  183.613  182.342  181.160  178.857  177.642  175.446  173.289  172.331  169.478  168.941  167.338  167.275  166.772  166.755  166.677  166.656  166.919  167.006  166.650  167.061  166.685  166.317  166.278  167.179  166.663  167.683  166.279  166.434  166.303  167.169  167.196  166.800  167.056  167.214  167.230  166.946  166.364  166.785  167.411  167.189  167.141  166.475  166.442  166.966  167.211  166.414  166.971  166.275  166.486  166.718  167.104  167.154  166.843  167.237  166.746  167.689  167.293  168.121  169.137  167.063  167.319  168.162  168.184  167.928  168.588  168.109 
DATE 2017:094:09:51:51 obsn  42 az 128 el 38 freq_MHz  1420.4000 Tsys 153.104 Tant 19.761 vlsr  -44.61 glat -0.188 glon 30.118 azoff 0.00 eloff 0.00 source G30.0 
Fstart 1419.397 fstop 1421.403 spacing 0.009375 bw    2.400 fbw    2.000 MHz nfreq 256 nsam 5242880 npoint 214 integ    10 sigma    0.504 bsw 0
Spectrum      9 integration periods
