DATE 2017:094:09:32:22 obsn   8 az 154 el 21 freq_MHz  1420.4000 Tsys 153.104 Tant 31.064 vlsr  -39.05 glat -0.205 glon  0.117 azoff 0.00 eloff 0.00 source G0.0 
Fstart 1419.397 fstop 1421.403 spacing 0.009375 bw    2.400 fbw    2.000 MHz nfreq 256 nsam 5242880 npoint 214 integ     7 sigma    0.618 bsw 0
Spectrum      6 integration periods
 175.125  173.939  175.145  174.745  174.670  173.570  173.359  174.817  174.442  172.863  173.011  173.468  172.975  172.947  173.747  174.096  174.804  174.112  173.055  173.741  172.728  174.196  173.479  172.725  174.237  174.060  175.007  172.942  173.234  173.312  174.658  173.343  174.264  173.650  172.674  173.387  172.632  173.948  172.530  173.139  173.721  173.440  174.808  173.427  174.689  174.829  174.741  174.249  173.583  173.576  174.401  173.514  175.756  173.869  174.768  174.410  174.629  175.415  174.481  175.930  173.538  174.410  173.754  174.484  175.245  175.008  176.163  174.519  176.887  188.657  181.020  183.042  175.023  174.416  175.215  174.973  174.792  176.266  175.233  176.046  174.219  175.099  175.562  176.134  176.269  176.022  174.804  174.868  175.976  176.300  176.699  175.808  175.953  175.032  174.460  174.311  175.488  175.666  174.872  175.419  175.142  175.458  174.235  175.256  176.109  176.480  173.931  176.798  175.651  176.599  176.617  177.409  178.266  179.241  180.843  178.581  181.538  184.005  186.219  187.993  190.778  193.873  195.171  201.419  204.095  210.532  217.604  222.865  226.663  221.227  220.007  232.298  235.248  231.041  226.773  220.412  215.556  210.382  206.446  204.920  200.659  197.212  194.681  192.181  189.608  187.724  186.086  183.824  182.755  180.192  181.398  179.496  179.989  178.491  178.342  178.197  177.322  178.113  178.626  178.834  177.213  177.474  177.895  179.105  179.270  179.581  178.476  178.415  178.370  177.980  178.476  177.471  176.213  179.111  176.721  176.841  175.373  175.786  176.082  175.617  176.623  174.012  175.243  176.573  175.898  175.753  174.319  177.118  175.538  175.304  174.738  176.059  174.449  175.464  175.243  175.150  174.434  175.526  173.564  175.135  175.163  174.793  175.824  176.091  175.675  175.871  175.999  176.515  176.779  175.367  176.233  176.462  175.542  176.108 
DATE 2017:094:09:32:35 obsn   9 az 154 el 21 freq_MHz  1420.4000 Tsys 153.104 Tant 30.845 vlsr  -39.05 glat -0.205 glon  0.117 azoff 0.00 eloff 0.00 source G0.0 
Fstart 1419.397 fstop 1421.403 spacing 0.009375 bw    2.400 fbw    2.000 MHz nfreq 256 nsam 5242880 npoint 214 integ    17 sigma    0.378 bsw 0
Spectrum     16 integration periods
 176.393  175.250  175.817  175.133  175.919  174.953  174.305  175.325  175.276  173.847  174.842  174.804  174.197  174.377  174.877  174.510  174.959  174.578  174.505  175.631  173.831  174.844  174.771  175.229  175.448  175.118  175.623  174.572  174.678  174.431  174.912  174.387  175.296  175.140  173.970  175.029  174.811  174.620  174.611  174.676  174.903  175.361  175.593  175.168  175.959  175.794  175.827  175.908  175.408  175.980  176.017  175.156  177.261  175.614  176.111  175.380  176.416  176.005  176.298  176.397  175.469  176.189  175.485  176.286  176.238  176.568  177.277  175.750  177.332  191.833  181.721  184.673  176.731  175.702  176.228  175.956  176.109  177.086  177.411  176.282  176.345  176.782  176.596  177.290  177.216  177.327  176.517  176.516  177.437  177.775  177.261  177.021  177.090  176.795  176.068  176.299  176.552  176.639  176.847  176.442  176.444  176.779  175.781  176.792  177.701  178.151  176.553  177.646  177.391  177.645  178.234  178.788  179.231  180.544  181.064  181.883  184.048  186.030  188.675  191.058  193.699  196.355  200.420  205.064  209.572  216.284  224.285  230.909  233.237  228.368  227.310  240.382  243.703  239.653  233.936  226.810  221.324  215.578  211.789  209.239  205.211  201.500  198.593  196.232  191.728  190.660  188.783  186.412  184.954  182.793  183.364  181.511  181.707  181.305  180.569  180.806  179.513  179.930  179.835  179.777  180.280  179.784  180.152  181.159  180.865  180.703  180.701  180.805  180.612  180.111  179.644  179.429  179.135  180.252  178.899  178.550  177.338  177.340  177.928  177.981  177.020  176.691  177.725  177.505  177.201  177.260  176.028  178.068  176.767  176.802  176.321  177.175  176.839  177.019  177.021  176.881  176.464  176.935  176.101  176.415  176.741  176.274  176.872  177.555  176.774  178.000  177.397  177.160  177.866  177.293  177.536  177.233  177.139  177.433 
DATE 2017:094:09:32:48 obsn  10 az 154 el 21 freq_MHz  1420.4000 Tsys 153.104 Tant 30.923 vlsr  -39.05 glat -0.205 glon  0.117 azoff 0.00 eloff 0.00 source G0.0 
Fstart 1419.397 fstop 1421.403 spacing 0.009375 bw    2.400 fbw    2.000 MHz nfreq 256 nsam 5242880 npoint 214 integ    28 sigma    0.297 bsw 0
Spectrum     26 integration periods
 176.705  175.325  176.005  175.188  176.150  175.235  174.927  175.258  175.517  174.298  175.306  175.182  174.225  174.687  175.059  174.862  175.157  174.989  174.718  175.744  174.571  175.213  174.998  175.092  175.510  174.911  175.423  174.822  175.387  174.725  175.249  174.777  175.804  175.308  174.606  175.229  175.461  174.967  174.908  175.082  175.632  175.698  175.545  175.571  176.234  176.158  175.882  176.146  176.191  176.249  176.164  175.714  177.209  175.962  176.315  175.861  176.722  176.262  176.897  176.535  176.082  176.455  175.914  176.835  176.776  176.630  177.289  176.593  177.879  192.470  180.615  185.389  177.245  176.315  176.592  176.686  176.514  177.348  177.201  176.717  176.768  176.878  176.952  177.357  177.090  177.532  177.279  176.961  177.681  177.744  177.522  177.508  177.765  177.245  176.819  176.632  177.110  176.919  177.138  177.383  177.211  177.193  176.438  177.176  177.680  177.828  176.984  177.987  177.912  178.073  178.879  179.059  179.464  180.900  181.567  182.507  184.516  186.425  189.103  191.818  194.466  197.685  201.784  205.900  210.962  217.262  225.694  232.686  234.679  230.745  229.122  242.650  245.716  241.677  235.787  228.806  223.016  217.207  212.972  210.322  206.346  203.028  199.481  196.700  193.034  191.576  189.405  186.712  185.194  183.345  183.601  182.370  181.950  181.583  180.870  181.077  180.429  180.419  180.440  180.344  180.770  180.412  180.915  181.449  181.336  181.282  181.342  181.319  180.912  180.371  180.079  180.033  179.690  180.288  179.151  179.103  177.969  177.830  178.545  178.360  177.388  177.323  178.271  177.765  177.916  177.735  176.873  178.056  177.026  177.325  176.772  177.412  177.459  177.340  177.346  176.983  176.764  177.676  176.978  176.699  176.950  176.864  176.980  177.563  176.877  178.136  177.659  177.461  177.764  177.615  177.617  177.364  177.784  177.766 
DATE 2017:094:09:33:12 obsn  11 az 145 el 26 freq_MHz  1420.4000 Tsys 153.104 Tant 26.678 vlsr  -42.21 glat -0.205 glon 10.118 azoff 0.00 eloff 0.00 source G10.0 
Fstart 1419.397 fstop 1421.403 spacing 0.009375 bw    2.400 fbw    2.000 MHz nfreq 256 nsam 5242880 npoint 214 integ    11 sigma    0.478 bsw 0
Spectrum     10 integration periods
 173.905  173.057  172.579  171.984  172.195  172.240  172.507  171.581  172.092  171.418  171.567  172.376  172.514  171.838  171.700  171.722  171.273  171.920  172.434  171.877  171.295  172.740  172.208  172.270  172.911  172.199  171.545  170.991  172.148  171.692  171.476  172.655  171.943  171.333  172.090  172.317  170.902  172.152  172.927  172.063  172.811  173.517  171.978  172.173  172.846  173.154  173.176  173.454  172.269  173.129  175.005  174.419  173.432  173.620  173.428  174.005  173.282  172.916  174.076  173.112  173.813  173.432  174.503  175.161  173.281  173.411  172.733  174.183  176.290  191.956  176.260  182.358  174.873  173.904  173.638  173.527  173.501  172.482  172.993  172.908  173.089  172.664  173.120  172.548  172.971  172.752  173.525  173.306  173.345  173.212  175.069  173.213  173.570  173.931  172.566  173.936  173.603  173.427  174.321  173.687  173.598  174.144  174.641  174.746  174.510  175.670  175.340  177.691  177.329  178.830  181.058  181.301  183.069  184.179  187.004  187.894  191.071  194.409  196.220  201.234  204.014  207.741  211.719  215.430  218.533  222.667  227.149  229.194  231.164  229.073  218.560  219.937  227.390  227.762  220.645  213.779  210.508  208.060  206.287  205.221  204.609  203.237  200.307  197.920  194.879  191.852  187.635  184.864  182.977  179.518  178.259  176.617  176.399  173.455  175.698  174.889  174.638  172.498  172.859  172.402  173.597  172.956  172.669  173.710  173.534  172.694  173.213  173.050  173.139  173.001  172.478  172.273  172.218  172.957  172.562  172.621  171.445  172.627  172.685  171.950  172.242  172.064  171.638  172.696  173.078  172.085  172.030  173.033  172.892  172.997  171.902  171.635  171.676  171.986  173.286  172.701  172.029  171.867  171.588  171.033  172.759  171.650  171.230  172.228  171.812  176.728  176.168  172.967  172.164  173.065  172.487  173.122  173.854  173.172 
DATE 2017:094:09:33:25 obsn  12 az 145 el 26 freq_MHz  1420.4000 Tsys 153.104 Tant 26.171 vlsr  -42.21 glat -0.205 glon 10.118 azoff 0.00 eloff 0.00 source G10.0 
Fstart 1419.397 fstop 1421.403 spacing 0.009375 bw    2.400 fbw    2.000 MHz nfreq 256 nsam 5242880 npoint 214 integ    22 sigma    0.338 bsw 0
Spectrum     20 integration periods
 173.680  173.146  172.277  171.701  172.106  172.120  172.720  171.773  171.727  171.779  171.344  172.075  172.002  171.582  171.690  171.632  171.576  172.372  172.715  172.127  171.561  172.360  172.313  172.263  172.190  172.120  171.763  171.153  171.752  171.796  171.568  172.525  172.029  171.458  171.643  172.368  171.830  172.138  172.827  172.688  172.403  172.871  172.485  172.466  172.666  172.526  172.587  172.979  172.843  172.661  174.199  173.835  173.499  172.934  173.690  173.612  173.657  173.001  174.014  173.332  174.184  173.599  174.180  174.132  172.545  173.391  173.022  174.384  176.050  190.901  177.197  181.504  174.497  173.806  173.252  173.105  173.250  172.457  172.559  172.527  172.365  172.506  172.981  172.068  172.394  172.229  172.851  172.819  173.014  173.318  174.053  172.779  173.205  173.438  172.396  172.868  173.389  172.889  173.423  173.526  173.957  173.559  174.418  174.631  174.843  175.619  175.553  177.156  177.668  178.674  180.503  181.455  183.027  184.652  186.950  188.933  191.086  194.594  197.493  200.755  204.432  208.467  212.412  215.745  218.800  222.524  226.032  229.668  230.654  228.670  217.503  218.375  226.152  226.552  219.836  212.419  209.345  207.645  206.308  204.715  204.188  203.454  200.838  198.214  195.691  191.813  187.679  184.951  182.651  179.426  177.106  176.897  175.488  174.077  175.128  174.731  173.677  172.554  172.321  172.399  173.609  172.252  172.568  173.051  172.748  171.912  172.373  172.392  172.062  172.436  172.196  171.865  171.856  172.672  172.232  172.003  171.481  172.142  172.381  171.764  171.856  171.337  171.703  171.868  172.289  171.973  171.932  172.130  171.863  171.919  171.860  171.248  171.155  171.905  172.788  172.142  171.560  171.250  171.290  171.173  171.850  171.591  171.383  172.342  171.611  176.521  176.196  172.225  171.968  172.569  172.469  172.687  173.585  172.724 
DATE 2017:094:09:33:52 obsn  13 az 135 el 31 freq_MHz  1420.4000 Tsys 153.104 Tant 26.956 vlsr  -44.08 glat -0.200 glon 20.118 azoff 0.00 eloff 0.00 source G20.0 
Fstart 1419.397 fstop 1421.403 spacing 0.009375 bw    2.400 fbw    2.000 MHz nfreq 256 nsam 5242880 npoint 214 integ     4 sigma    0.756 bsw 0
Spectrum      4 integration periods
 171.230  172.843  172.343  172.144  171.035  171.492  172.384  173.350  172.197  172.819  171.553  170.670  170.996  170.651  172.323  172.134  169.511  171.295  171.688  171.503  171.247  172.015  171.894  171.859  171.470  171.310  169.960  169.944  171.731  170.472  171.348  171.642  170.478  172.201  170.795  170.316  171.477  170.980  170.169  171.818  170.318  170.747  171.152  170.810  171.416  170.400  169.857  172.008  171.330  172.132  171.564  171.650  171.083  171.062  172.565  173.347  170.907  170.482  172.529  171.117  170.965  172.698  172.471  172.903  172.966  171.742  172.623  174.507  175.366  204.722  173.193  179.290  175.597  175.775  174.604  175.304  178.104  175.790  175.377  173.494  175.804  174.720  175.876  175.906  174.250  176.238  175.554  176.582  176.882  177.023  176.146  176.971  176.530  177.148  174.976  177.125  178.593  178.655  179.569  179.796  178.922  181.306  182.427  180.611  183.394  184.856  184.788  186.438  187.285  187.155  189.847  190.806  190.249  192.779  195.037  197.017  198.487  203.027  202.902  206.645  208.154  212.327  214.871  217.352  221.550  224.245  225.262  222.544  222.378  219.745  217.492  214.804  218.122  222.517  218.972  210.779  202.951  197.701  194.286  192.621  192.116  191.593  190.938  191.877  191.468  189.315  189.648  188.953  185.147  186.147  183.414  182.082  179.992  178.130  175.060  175.942  172.961  172.876  171.245  170.260  170.901  170.302  170.719  170.218  169.725  170.577  169.767  168.844  169.816  170.404  168.926  169.536  169.586  170.639  169.709  169.880  169.766  169.718  168.615  169.551  169.501  169.164  170.325  169.999  169.647  168.968  170.110  168.389  169.040  171.041  170.300  170.519  168.929  170.261  170.235  168.914  170.492  168.637  169.703  170.960  170.028  169.913  170.755  168.285  167.796  171.285  171.343  171.415  170.697  169.504  169.468  170.705  171.024  170.273 
DATE 2017:094:09:34:05 obsn  14 az 135 el 31 freq_MHz  1420.4000 Tsys 153.104 Tant 27.356 vlsr  -44.08 glat -0.200 glon 20.118 azoff 0.00 eloff 0.00 source G20.0 
Fstart 1419.397 fstop 1421.403 spacing 0.009375 bw    2.400 fbw    2.000 MHz nfreq 256 nsam 5242880 npoint 214 integ    15 sigma    0.404 bsw 0
Spectrum     14 integration periods
 172.996  172.896  172.267  172.257  172.082  171.699  171.705  172.325  171.800  172.434  171.183  171.667  170.745  170.961  171.568  172.237  170.979  171.541  172.124  171.557  171.660  171.470  171.940  171.833  171.468  171.144  170.854  170.784  171.497  170.579  170.888  170.683  170.635  171.052  170.733  170.039  170.991  171.154  170.595  171.621  170.356  171.431  171.670  171.321  171.263  170.204  171.631  171.479  171.596  171.344  172.062  171.415  171.424  171.753  172.706  172.577  171.414  170.919  172.008  171.321  171.474  171.426  172.261  172.890  172.019  172.028  172.241  174.423  175.490  207.400  178.081  179.180  176.007  175.983  174.736  176.255  177.182  176.443  176.209  176.093  175.894  175.125  176.370  176.009  176.296  176.708  176.825  177.181  177.554  178.447  177.273  178.271  177.879  178.047  177.917  178.760  179.247  179.310  180.143  181.103  181.128  182.528  183.742  183.872  185.784  187.608  188.069  188.969  189.731  190.826  191.613  193.367  193.325  195.352  196.966  198.252  199.708  202.863  204.070  206.353  209.193  213.320  216.948  218.752  221.965  223.227  224.976  222.872  220.928  218.625  217.716  215.733  218.003  221.334  219.835  211.106  200.936  196.629  193.074  191.375  190.642  189.539  189.200  190.214  190.100  189.385  189.044  189.805  188.006  187.153  184.672  183.787  181.437  179.324  176.602  175.168  173.188  172.458  170.292  171.089  170.199  169.991  170.694  170.079  168.878  169.694  169.842  169.221  170.189  169.612  169.330  169.689  169.580  169.510  169.947  169.786  169.849  170.024  169.187  169.926  170.323  169.857  170.021  169.925  169.787  169.315  169.643  168.614  169.379  169.608  170.000  170.095  169.583  169.544  169.887  170.200  170.160  169.776  169.222  169.792  169.223  169.492  170.257  168.954  168.683  170.869  170.822  170.048  169.920  169.257  170.493  170.754  170.763  170.677 
DATE 2017:094:09:34:18 obsn  15 az 135 el 31 freq_MHz  1420.4000 Tsys 153.104 Tant 27.386 vlsr  -44.08 glat -0.200 glon 20.118 azoff 0.00 eloff 0.00 source G20.0 
Fstart 1419.397 fstop 1421.403 spacing 0.009375 bw    2.400 fbw    2.000 MHz nfreq 256 nsam 5242880 npoint 214 integ    26 sigma    0.309 bsw 0
Spectrum     24 integration periods
 173.543  172.858  172.443  173.034  172.249  172.082  172.048  172.649  171.823  172.137  171.276  171.677  170.956  170.879  171.432  172.212  171.737  171.192  172.019  171.382  171.718  171.527  172.203  171.947  171.705  171.499  170.823  171.360  171.566  170.839  171.112  170.861  171.122  170.699  170.730  170.292  171.092  171.523  171.181  171.604  170.515  171.311  171.001  170.967  171.370  170.683  171.640  171.100  170.768  171.099  171.760  171.678  171.318  171.576  172.226  171.992  171.693  170.808  171.834  171.405  171.760  171.301  172.583  173.019  171.831  172.210  172.885  174.517  176.079  208.195  177.623  179.238  176.209  176.137  175.273  176.792  177.409  177.309  176.897  176.494  176.579  175.301  176.178  176.683  176.591  176.981  177.152  177.117  177.875  178.645  177.951  177.950  178.091  178.121  178.097  179.071  179.200  179.853  180.649  180.988  181.857  183.080  184.227  184.901  186.588  188.215  188.069  189.752  190.078  191.063  192.765  193.732  194.427  195.975  196.886  198.669  200.124  202.599  204.804  206.505  209.750  213.863  216.693  219.385  222.460  223.866  225.390  222.794  220.646  217.890  217.617  216.357  217.882  220.918  220.496  211.078  201.276  196.832  193.210  191.488  190.409  190.018  189.324  189.618  190.244  189.616  189.738  189.995  188.819  187.682  185.313  184.303  182.110  179.837  177.676  175.273  173.608  172.066  170.951  171.196  170.667  170.376  170.275  170.348  169.309  169.905  170.131  169.511  170.029  169.582  169.292  169.801  169.215  169.700  169.908  169.979  169.497  170.079  169.654  169.809  169.908  169.695  170.172  169.888  169.959  169.678  169.417  169.442  169.484  169.590  169.792  169.959  169.635  169.728  169.869  170.101  170.072  169.641  169.708  170.180  169.798  169.515  169.953  169.311  169.231  170.677  170.897  170.124  170.252  169.417  170.447  170.804  170.817  170.394 
DATE 2017:094:09:34:45 obsn  16 az 124 el 35 freq_MHz  1420.4000 Tsys 153.104 Tant 31.322 vlsr  -44.61 glat -0.188 glon 30.118 azoff 0.00 eloff 0.00 source G30.0 
Fstart 1419.397 fstop 1421.403 spacing 0.009375 bw    2.400 fbw    2.000 MHz nfreq 256 nsam 5242880 npoint 214 integ    10 sigma    0.504 bsw 0
Spectrum      9 integration periods
