DATE 2017:065:01:53:20 obsn   0 az 331 el 12 freq_MHz  1420.4000 Tsys 195.571 Tant 30.510 vlsr   -7.08 glat  0.014 glon 100.118 source G100.0 
Fstart 1419.397 fstop 1421.403 spacing 0.009375 bw    2.400 fbw    2.000 MHz nfreq 256 nsam 5242880 npoint 214 integ     8 sigma    0.730 bsw 0
Spectrum      7 integration periods
 218.375  217.904  217.473  217.282  216.038  216.728  217.180  218.159  216.990  216.194  217.139  216.123  216.316  214.906  215.695  215.736  215.785  216.392  215.674  217.438  215.778  215.451  216.035  216.647  216.914  217.192  216.750  215.539  216.595  215.868  216.647  216.576  216.982  215.925  215.548  216.301  216.478  215.525  215.544  214.927  216.104  214.337  217.021  216.457  215.068  216.534  216.101  217.610  216.503  214.946  215.970  216.043  216.747  216.217  216.360  216.193  217.225  214.817  217.508  214.635  215.464  216.486  215.509  215.043  214.891  217.555  216.353  216.243  227.992  227.246  218.869  247.330  215.245  214.639  214.557  215.446  215.562  215.652  214.451  213.434  214.390  213.832  215.376  214.349  214.345  216.061  213.663  215.551  216.024  217.270  215.753  216.286  216.273  215.918  216.569  214.987  216.744  215.852  217.495  216.664  215.902  216.195  215.372  216.293  215.883  216.375  215.414  216.664  217.350  219.132  219.657  225.148  230.149  237.466  250.835  260.490  267.313  266.025  266.326  261.492  255.469  251.998  248.656  246.095  245.071  247.497  248.681  247.038  244.037  241.447  241.549  240.128  240.552  239.537  242.638  242.495  243.587  248.540  242.277  245.089  245.094  247.145  248.139  246.056  248.654  247.965  249.841  250.204  248.853  248.292  245.965  244.911  240.695  238.240  234.327  230.312  227.796  226.760  225.302  225.905  226.104  226.439  228.401  230.959  229.297  229.234  227.059  227.787  224.249  224.704  223.361  221.239  220.557  220.496  219.539  218.463  215.778  216.426  215.656  216.008  216.311  214.806  215.943  215.656  216.158  216.120  214.751  214.181  214.039  214.858  214.972  214.747  215.045  214.424  213.656  213.692  213.528  213.653  213.612  214.201  215.196  215.769  216.395  214.861  214.704  213.675  215.371  215.039  214.525  213.291  213.402  213.776  214.625  213.756 
DATE 2017:065:01:53:41 obsn   1 az 331 el 14 freq_MHz  1420.4000 Tsys 195.571 Tant 28.780 vlsr   -5.28 glat  0.023 glon 102.618 source G102.5 
Fstart 1419.397 fstop 1421.403 spacing 0.009375 bw    2.400 fbw    2.000 MHz nfreq 256 nsam 5242880 npoint 214 integ     7 sigma    0.789 bsw 0
Spectrum      6 integration periods
 214.943  215.702  215.705  216.160  215.503  213.703  215.956  216.171  215.069  214.385  215.657  215.446  215.500  213.962  213.957  215.697  213.517  212.974  216.221  213.931  214.357  214.401  213.066  215.523  215.285  213.907  215.292  213.542  213.898  214.713  215.915  214.793  213.834  215.114  213.474  215.261  213.377  213.840  215.234  214.248  215.036  216.849  216.352  214.456  214.469  213.725  215.609  213.922  214.727  214.535  214.237  214.515  214.247  215.004  216.266  213.210  214.752  216.775  215.141  214.882  213.559  215.076  213.868  215.940  213.634  215.013  213.735  215.716  226.583  227.878  218.511  247.971  214.071  215.722  214.204  213.152  213.165  212.774  213.095  214.324  212.898  213.524  214.136  214.155  214.710  213.876  213.435  214.401  213.512  214.186  214.036  213.138  214.792  215.055  213.653  213.501  213.119  213.916  214.069  213.891  214.414  213.766  214.290  212.892  214.023  215.577  216.014  214.971  215.709  217.744  223.031  228.535  235.032  246.606  260.597  273.661  276.205  274.277  268.037  264.168  258.019  251.509  246.766  245.566  246.219  248.092  250.535  248.974  243.651  243.144  240.609  240.872  240.874  240.617  242.741  242.321  244.975  253.611  249.400  253.096  253.867  255.207  256.603  255.745  258.692  256.264  255.173  256.565  256.768  253.481  248.047  245.943  238.807  235.557  232.416  229.275  225.957  224.978  225.097  224.782  224.358  225.128  228.760  231.812  231.091  230.542  228.399  225.967  226.181  223.790  222.335  221.111  219.325  218.125  217.112  217.397  215.691  215.623  213.475  214.723  215.285  213.332  215.197  215.584  215.460  213.533  214.618  213.064  212.959  214.601  214.101  212.341  212.676  212.960  212.687  212.915  212.562  212.831  213.303  214.629  211.583  212.468  212.021  213.721  213.796  214.474  213.557  213.623  213.427  214.364  214.531  212.591  213.611  213.819 
DATE 2017:065:01:54:02 obsn   2 az 331 el 17 freq_MHz  1420.4000 Tsys 195.571 Tant 26.136 vlsr   -3.46 glat  0.031 glon 105.118 source G105.0 
Fstart 1419.397 fstop 1421.403 spacing 0.009375 bw    2.400 fbw    2.000 MHz nfreq 256 nsam 5242880 npoint 214 integ     8 sigma    0.730 bsw 0
Spectrum      7 integration periods
 213.718  212.755  211.002  213.831  211.926  212.764  214.336  212.753  212.505  211.234  211.955  212.144  212.480  211.113  211.507  211.421  211.021  211.408  211.325  210.803  212.272  211.826  212.106  211.443  212.969  212.253  213.441  211.640  212.576  212.042  212.787  212.411  211.856  211.976  212.333  212.260  211.530  210.336  211.826  211.499  211.167  211.722  212.459  212.142  210.873  211.469  211.952  212.955  210.864  211.855  212.458  210.730  211.132  211.673  212.784  211.956  213.010  212.549  210.962  213.327  211.177  210.771  212.015  211.638  212.530  211.600  211.887  215.541  223.560  222.433  214.032  235.081  212.496  210.746  210.692  209.845  210.298  211.485  210.767  211.565  211.656  210.148  210.681  210.727  210.823  211.398  210.987  211.607  211.470  211.631  212.041  209.940  210.651  210.297  211.266  211.137  210.404  211.504  210.827  211.782  212.180  212.383  211.990  211.732  212.855  212.236  211.470  214.905  216.018  218.298  223.818  232.603  242.847  256.048  268.932  277.574  276.970  273.501  271.682  262.480  257.783  248.876  242.474  238.027  236.615  238.961  240.628  240.228  237.272  235.941  235.209  234.750  235.848  238.142  241.806  243.605  246.428  253.686  255.589  257.510  260.983  261.837  259.956  257.861  258.324  255.696  257.454  257.992  254.630  249.477  243.968  239.693  233.258  228.113  226.215  223.124  222.565  222.370  221.561  220.700  221.884  223.734  225.677  227.936  229.166  225.664  222.030  221.168  221.267  220.314  218.599  217.169  215.828  217.341  215.825  214.622  214.355  212.370  214.861  212.998  212.120  211.705  211.672  212.207  211.959  210.995  210.213  211.994  212.709  212.080  211.532  210.788  211.621  210.254  211.748  210.637  210.592  210.506  211.642  210.893  210.837  210.892  210.483  211.892  209.899  210.585  212.370  211.966  210.668  211.401  211.609  212.167  212.334  211.001 
DATE 2017:065:01:54:23 obsn   3 az 330 el 19 freq_MHz  1420.4000 Tsys 195.571 Tant 25.178 vlsr   -1.64 glat  0.040 glon 107.618 source G107.5 
Fstart 1419.397 fstop 1421.403 spacing 0.009375 bw    2.400 fbw    2.000 MHz nfreq 256 nsam 5242880 npoint 214 integ     9 sigma    0.683 bsw 0
Spectrum      8 integration periods
 213.161  211.854  209.654  211.460  211.619  210.439  211.532  210.398  211.798  212.161  210.054  210.476  211.004  209.914  209.953  209.251  209.662  209.296  210.514  210.392  210.815  210.739  209.620  211.564  210.335  208.818  209.603  210.800  211.338  210.133  210.286  209.520  210.380  209.398  211.289  211.011  209.493  210.329  209.923  210.738  209.247  210.341  210.635  211.381  209.711  209.439  209.566  209.445  209.700  210.073  209.841  208.963  209.493  211.220  210.866  209.966  210.254  210.700  211.676  210.072  208.826  209.958  210.567  211.238  210.608  209.980  210.186  209.938  219.572  220.772  214.042  236.014  210.784  209.037  209.975  209.135  209.710  209.290  211.248  209.219  208.521  210.723  210.055  210.176  210.037  210.075  209.657  209.069  209.199  210.894  209.442  210.347  210.383  210.707  209.849  210.490  210.133  209.043  209.758  210.515  209.598  209.274  210.662  210.587  211.379  211.467  212.152  214.346  216.701  222.513  229.412  240.954  253.467  263.857  274.033  277.892  278.506  273.868  268.633  262.962  252.428  244.166  235.259  229.929  228.673  228.973  232.011  232.978  233.277  234.665  236.512  236.974  240.471  241.340  245.571  249.680  256.312  262.321  263.531  265.626  264.600  263.133  259.511  256.594  252.595  249.247  247.533  248.111  245.990  242.146  237.030  234.266  228.799  225.106  223.779  222.551  221.575  218.115  218.966  219.143  222.968  224.300  225.366  225.993  225.904  223.776  219.945  218.195  217.205  216.708  216.427  214.733  214.133  215.043  213.431  213.692  213.178  211.942  211.054  212.110  211.567  211.355  213.027  210.317  210.842  212.462  210.851  211.312  211.719  211.392  210.072  211.652  209.433  209.544  209.798  210.843  211.381  210.641  210.269  210.711  209.650  209.989  211.115  212.517  210.860  210.427  211.860  212.629  210.985  210.762  211.695  210.988  211.945  210.265 
DATE 2017:065:01:54:44 obsn   4 az 330 el 22 freq_MHz  1420.4000 Tsys 195.571 Tant 25.476 vlsr    0.18 glat  0.049 glon 110.118 source G110.0 
Fstart 1419.397 fstop 1421.403 spacing 0.009375 bw    2.400 fbw    2.000 MHz nfreq 256 nsam 5242880 npoint 214 integ     9 sigma    0.683 bsw 0
Spectrum      8 integration periods
 211.991  212.509  211.813  210.267  211.520  211.985  212.537  210.605  209.634  210.777  211.069  210.624  209.996  210.155  209.475  210.328  211.722  209.595  209.596  210.445  211.352  210.587  209.607  210.464  211.088  210.866  210.510  211.242  210.521  210.361  211.399  210.323  209.236  211.123  211.140  210.087  210.243  211.368  210.731  210.340  211.119  209.991  209.699  210.244  210.458  210.230  211.229  210.044  210.632  210.434  210.449  211.458  209.225  208.987  212.048  210.198  210.871  210.379  210.252  211.152  211.370  210.251  210.727  211.702  212.527  210.134  210.113  212.120  219.560  219.371  216.667  220.398  211.052  209.856  209.865  209.353  210.073  209.839  210.108  210.358  210.745  210.921  208.602  209.177  209.190  210.217  210.863  210.936  210.896  211.785  209.570  210.769  210.899  209.647  209.179  210.901  210.709  209.669  210.714  209.864  209.718  210.520  212.378  211.795  212.270  212.319  215.628  218.889  223.145  231.413  241.798  252.675  263.316  271.869  272.662  276.101  275.669  275.068  271.356  263.925  254.197  244.715  235.839  232.155  228.178  228.025  228.838  233.616  235.745  236.855  237.816  241.703  245.402  250.011  255.276  260.861  264.143  267.397  268.576  268.140  265.675  262.074  257.082  252.251  247.850  247.770  245.829  243.042  238.933  234.422  232.256  229.369  227.469  225.559  223.730  223.486  220.884  221.545  220.799  224.351  226.227  226.696  227.246  226.966  225.708  223.965  221.911  218.387  217.663  216.222  214.233  213.972  214.432  213.918  212.645  212.435  212.864  212.438  212.951  210.444  212.391  211.681  212.830  212.226  210.545  210.821  212.499  210.887  211.354  210.504  211.401  209.270  209.523  210.574  209.460  209.700  211.301  210.038  210.667  210.527  210.222  209.604  209.870  211.475  212.579  210.836  211.432  210.682  209.900  209.321  210.146  210.313  210.726  211.279 
DATE 2017:065:01:55:05 obsn   5 az 329 el 24 freq_MHz  1420.4000 Tsys 195.571 Tant 25.399 vlsr    2.00 glat  0.058 glon 112.617 source G112.5 
Fstart 1419.397 fstop 1421.403 spacing 0.009375 bw    2.400 fbw    2.000 MHz nfreq 256 nsam 5242880 npoint 214 integ    10 sigma    0.644 bsw 0
Spectrum      9 integration periods
 212.949  212.353  213.135  212.465  212.512  211.507  211.617  212.549  212.586  212.080  211.008  211.040  211.664  211.142  212.063  212.562  211.395  211.282  210.532  211.238  211.366  211.061  209.761  211.470  211.332  210.885  211.893  212.141  210.553  211.962  211.614  211.021  211.481  212.018  210.715  209.651  210.876  211.145  210.908  211.210  211.157  211.240  212.048  212.461  209.782  211.057  211.040  212.113  210.939  210.734  211.190  211.493  210.447  210.422  211.812  211.114  211.569  211.434  211.761  210.794  211.299  210.749  211.272  209.728  211.191  211.150  212.020  214.306  218.008  215.837  212.245  215.326  211.280  209.980  209.843  211.081  211.224  209.890  210.065  210.124  209.010  209.564  210.285  210.082  211.521  211.363  211.033  211.129  211.833  211.999  211.503  211.163  210.496  211.308  211.406  211.060  210.837  211.007  211.125  212.932  211.387  211.165  212.288  212.740  214.238  216.355  216.584  221.653  228.733  237.274  249.488  260.551  269.617  270.590  271.043  271.937  272.007  269.598  266.312  261.533  251.924  243.320  233.803  229.643  227.394  227.860  230.809  234.942  237.974  242.866  247.197  250.342  253.083  258.978  262.136  265.767  267.403  269.887  264.882  261.411  258.949  255.914  251.103  249.676  244.987  241.462  238.262  236.223  231.335  229.954  228.057  225.104  222.845  222.093  221.853  221.510  221.210  222.232  222.331  223.899  224.909  226.626  225.759  224.744  221.922  220.216  219.187  217.412  216.065  213.876  213.886  212.670  213.351  213.373  211.978  213.370  213.282  212.880  212.715  213.200  212.252  211.850  211.427  211.160  211.935  210.251  211.409  210.706  210.215  211.496  211.776  210.751  211.007  210.631  210.227  211.044  210.293  210.770  211.189  211.387  210.588  209.540  210.874  209.508  209.940  210.529  211.217  211.224  211.170  210.918  211.493  210.005  209.932  210.556 
DATE 2017:065:01:55:43 obsn   6 az 328 el 29 freq_MHz  1420.4000 Tsys 195.571 Tant 22.738 vlsr    5.64 glat  0.075 glon 117.617 source G117.5 
Fstart 1419.397 fstop 1421.403 spacing 0.009375 bw    2.400 fbw    2.000 MHz nfreq 256 nsam 5242880 npoint 214 integ     2 sigma    1.367 bsw 0
Spectrum      2 integration periods
 208.654  211.603  212.291  210.383  206.713  209.268  209.991  210.236  209.906  211.826  208.746  209.519  208.888  207.518  207.633  209.689  210.064  208.640  207.631  209.567  208.900  211.158  207.502  207.746  207.188  206.557  210.715  210.765  208.974  206.737  209.923  207.755  208.895  208.863  209.749  210.074  210.841  208.185  208.742  209.921  209.584  210.832  208.811  208.821  210.751  210.122  207.895  209.421  209.330  206.094  209.725  207.687  206.788  208.994  211.547  210.721  206.728  208.911  209.430  208.054  207.194  208.166  206.905  208.844  206.611  207.633  211.034  210.032  222.449  221.894  222.174  212.857  208.965  209.165  207.733  207.616  208.102  209.129  209.465  208.265  207.511  208.676  207.692  208.775  213.108  208.291  207.914  207.413  210.987  207.812  207.800  208.678  207.306  208.474  207.987  207.357  208.899  210.005  207.116  208.743  208.835  208.610  211.903  212.176  215.372  214.244  220.055  230.806  245.197  254.150  258.186  257.714  258.077  260.404  260.024  257.586  254.574  252.400  246.792  241.278  233.346  230.150  228.567  227.922  228.405  233.264  232.822  239.128  242.820  243.172  244.136  247.673  251.747  256.628  259.070  257.737  260.770  259.383  257.881  255.339  255.825  250.697  249.272  241.246  240.630  235.951  227.784  227.273  219.962  218.807  218.105  217.413  218.260  218.579  221.209  219.919  219.236  223.494  223.934  223.467  218.518  220.746  220.909  217.236  215.168  214.881  211.881  211.592  212.151  210.025  208.337  209.226  211.234  211.243  207.517  208.435  209.529  209.127  211.614  208.533  208.135  208.555  209.145  207.329  206.962  209.123  207.397  210.311  208.198  207.545  206.734  207.930  205.713  208.182  207.273  210.366  207.425  209.106  207.544  206.229  206.172  207.021  208.523  209.172  211.045  207.240  211.493  209.222  211.038  207.660  207.672  207.393  208.701  208.226 
DATE 2017:065:01:56:04 obsn   7 az 328 el 31 freq_MHz  1420.4000 Tsys 195.571 Tant 24.055 vlsr    7.44 glat  0.083 glon 120.117 source G120.0 
Fstart 1419.397 fstop 1421.403 spacing 0.009375 bw    2.400 fbw    2.000 MHz nfreq 256 nsam 5242880 npoint 214 integ     3 sigma    1.116 bsw 0
Spectrum      3 integration periods
 209.925  208.003  209.545  209.955  208.614  211.101  210.105  206.972  209.842  209.625  209.014  209.633  208.804  211.255  208.643  211.506  211.217  207.719  207.437  209.004  211.054  210.068  208.958  210.155  209.053  207.980  208.826  207.653  211.035  209.672  212.134  208.797  209.101  208.418  210.186  207.991  209.525  212.779  209.823  208.168  208.946  209.015  209.122  209.520  208.186  207.909  208.735  210.631  208.971  209.092  210.173  210.937  208.504  208.046  209.768  209.574  209.077  209.089  208.673  206.002  208.802  207.740  208.417  207.780  209.890  208.236  209.685  212.413  229.592  234.426  211.985  212.434  207.026  208.635  206.044  208.996  206.650  208.692  208.974  210.295  207.811  209.477  210.128  208.297  210.126  208.714  209.797  207.653  208.702  209.240  208.659  209.252  207.778  211.203  208.280  207.566  211.240  209.177  208.998  208.170  210.262  209.899  210.214  212.603  216.956  220.355  227.030  241.339  251.104  259.464  259.495  260.000  260.758  262.776  262.550  258.959  256.786  252.859  247.071  240.901  232.163  233.648  229.138  232.137  230.800  235.183  238.679  239.050  242.774  244.468  247.441  246.562  252.514  254.985  259.612  261.148  264.084  263.254  261.092  259.460  256.574  256.018  251.105  245.392  243.767  236.745  231.614  224.587  223.664  220.453  221.302  220.494  220.927  220.965  222.856  224.443  222.868  221.376  224.135  221.636  222.009  221.788  220.409  219.500  218.760  216.728  213.087  210.979  212.716  212.126  211.617  209.558  210.168  209.788  209.970  211.238  209.965  209.839  208.982  206.581  210.579  210.517  211.640  209.305  209.414  210.388  208.263  211.903  208.732  208.296  207.745  209.812  209.895  210.858  209.247  209.136  208.255  209.309  208.203  209.339  205.751  208.317  209.789  209.297  209.420  209.848  210.371  209.915  210.279  210.330  209.496  208.189  208.016  208.458 
DATE 2017:065:01:56:25 obsn   8 az 327 el 34 freq_MHz  1420.4000 Tsys 195.571 Tant 21.859 vlsr    9.22 glat  0.091 glon 122.617 source G122.5 
Fstart 1419.397 fstop 1421.403 spacing 0.009375 bw    2.400 fbw    2.000 MHz nfreq 256 nsam 5242880 npoint 214 integ     4 sigma    0.966 bsw 0
Spectrum      4 integration periods
