DATE 2017:067:02:43:08 obsn 679 az  90 el  0 freq_MHz  1422.8800 Tsys 231.636 Tant 372.406 vlsr  -21.53 glat 62.191 glon 316.963 source at_stow
Fstart 1421.877 fstop 1423.883 spacing 0.009375 bw    2.400 fbw    2.000 MHz nfreq 256 nsam 5242880 npoint 214 integ    36 sigma    0.398 bsw 0
Spectrum     33 integration periods
 480.744  484.319  488.228  486.210  489.490  488.644  488.386  487.120  488.826  485.164  484.135  489.445  486.880  484.460  488.043  486.669  490.416  499.739  488.676  494.830  492.155  490.374  495.737  497.605  495.709  492.923  493.495  495.800  496.944  493.573  501.288  491.544  496.378  492.212  490.065  494.026  495.602  493.143  494.494  495.555  493.853  493.164  493.606  496.099  493.198  505.659  498.315  492.387  494.421  495.810  493.359  495.667  495.192  492.495  495.595  494.380  494.847  494.172  500.208  496.770  495.514  504.619  499.181  499.582  498.623  500.887  498.800  499.526  498.950  498.387  501.438  499.487  498.596  497.845  499.580  502.142  497.865  496.078  495.677  502.871  501.312  498.420  497.523  499.510  495.326  497.680  496.742  496.711  497.487  499.158  499.285  500.517  503.712  499.635  500.400  552.071  500.528  499.229  500.994  501.937  502.157  502.472  503.155  504.910  503.388  507.069  505.029  504.809  503.361  504.692  504.353  504.168  504.860  504.321  506.377  502.366  505.447  510.812  507.695  502.203  502.702  505.228  511.153  511.047  505.935  501.306  506.726  502.912  502.835  501.968  505.205  503.651  514.024  504.416  504.669  505.825  506.970  507.411  511.085  508.212  509.619  512.569  509.948  510.913  509.348  511.089  511.728  512.677  511.123  509.351  508.152  508.686  510.481  506.176  508.171  518.140  513.745  508.103  508.635  507.303  507.353  508.893  506.818  509.218  519.107  512.037  507.077  509.693  510.265  509.893  510.022  511.159  510.687  514.349  508.923  510.089  512.152  510.665  510.781  512.360  512.322  513.573  511.830  513.749  513.663  515.034  518.049  514.091  515.581  512.665  512.482  511.797  509.908  510.393  511.403  511.769  510.199  510.993  510.313  511.504  513.200  513.285  512.706  512.397  512.325  511.781  511.685  512.216  511.525  511.512  512.057  515.675  513.078  512.472 
DATE 2017:067:02:46:11 obsn 680 az 331 el 25 freq_MHz  1422.8800 Tsys 231.636 Tant 30.866 vlsr    7.09 glat  0.083 glon 120.117 source G120.0 
Fstart 1421.877 fstop 1423.883 spacing 0.009375 bw    2.400 fbw    2.000 MHz nfreq 256 nsam 5242880 npoint 214 integ    11 sigma    0.724 bsw 0
Spectrum     10 integration periods
 290.601  293.789  293.283  291.692  293.037  294.945  295.021  292.134  293.451  292.561  292.402  293.582  293.693  293.686  293.718  292.768  292.660  295.888  295.408  294.743  293.303  295.625  296.040  295.291  295.332  295.959  294.014  297.219  297.661  294.783  297.358  294.813  294.810  294.425  293.851  296.604  294.230  294.006  295.818  296.323  295.592  293.549  296.714  294.261  295.154  299.264  294.878  295.394  295.110  294.159  295.048  295.047  294.230  295.733  294.375  293.883  296.055  293.627  296.928  295.185  296.864  296.195  296.134  296.126  294.748  296.003  295.295  296.029  293.520  294.761  296.863  294.862  297.129  295.036  295.594  295.986  295.993  296.008  294.780  296.480  295.450  293.942  295.343  294.773  293.307  296.035  291.748  295.254  295.141  295.524  293.685  295.394  296.460  295.122  295.772  303.790  296.230  296.755  296.593  296.538  296.633  296.872  296.295  296.716  297.802  296.696  298.103  295.949  295.301  297.388  296.022  296.563  295.798  296.012  296.354  297.372  299.085  298.341  297.423  296.498  295.852  295.817  298.557  299.736  296.511  297.184  296.547  295.457  296.856  295.926  297.095  295.589  297.255  295.503  296.410  296.343  296.858  296.837  298.615  296.646  297.695  295.086  296.136  296.671  298.099  296.038  297.780  298.216  296.958  295.463  296.797  297.007  296.712  294.555  297.638  297.086  297.266  294.736  296.989  294.981  296.805  297.220  297.373  295.413  298.231  295.631  297.443  296.911  297.335  295.340  296.864  295.754  296.992  296.959  295.212  296.417  295.192  296.069  297.704  297.672  296.396  296.473  296.531  297.837  296.471  298.022  297.153  297.178  297.371  296.678  294.836  296.911  296.874  295.301  295.766  295.679  295.934  296.556  295.588  297.880  295.067  296.542  296.150  295.281  296.856  295.976  295.807  296.639  296.398  294.901  295.878  296.829  297.544  294.934 
DATE 2017:067:02:46:48 obsn 681 az 328 el 30 freq_MHz  1422.8800 Tsys 231.636 Tant 32.584 vlsr   10.69 glat  0.099 glon 125.117 source G125.0 
Fstart 1421.877 fstop 1423.883 spacing 0.009375 bw    2.400 fbw    2.000 MHz nfreq 256 nsam 5242880 npoint 214 integ     1 sigma    2.289 bsw 0
Spectrum      1 integration periods
 261.101  257.600  259.603  259.603  266.143  260.843  263.386  259.102  263.700  267.584  262.621  262.867  259.962  257.368  263.604  262.211  261.434  262.128  261.881  260.839  256.888  261.909  259.175  264.077  261.142  262.787  260.660  262.764  259.277  257.021  264.443  261.723  264.419  258.187  263.916  265.116  259.144  261.980  262.528  259.661  264.131  262.659  259.875  261.944  258.725  262.573  259.055  264.730  262.942  259.303  263.095  263.094  265.579  266.933  263.417  267.423  264.977  260.167  266.813  263.469  266.592  263.995  261.838  264.995  264.526  264.709  262.029  262.916  262.119  262.056  266.537  261.970  261.289  259.828  258.583  260.779  261.642  259.935  264.940  266.436  258.455  263.575  262.612  264.991  264.572  263.609  260.617  268.022  263.667  268.593  262.736  258.678  260.967  265.458  264.731  260.332  264.026  263.772  266.130  266.016  263.964  261.970  264.570  268.224  264.683  261.830  263.674  261.735  264.171  264.217  261.403  265.648  265.818  262.155  263.279  264.097  266.067  264.180  261.199  264.162  266.346  266.344  263.851  266.827  263.790  267.504  263.618  262.501  265.843  265.718  262.861  262.010  265.494  261.080  264.780  261.190  264.605  262.103  264.242  267.616  268.997  261.699  266.786  270.827  263.700  264.862  264.734  268.162  267.634  266.219  266.200  265.867  264.843  264.384  264.968  265.803  268.640  260.768  259.046  264.791  265.928  267.628  258.555  264.343  268.736  262.760  263.305  269.581  264.053  264.643  266.461  264.452  263.692  265.292  267.639  261.290  264.561  262.786  264.166  259.324  266.061  263.144  269.778  263.160  267.892  266.176  267.704  269.989  266.599  263.539  264.506  264.423  264.362  267.212  264.915  265.251  269.266  264.646  265.575  264.089  268.045  261.760  262.285  264.875  263.805  266.478  260.163  267.967  263.822  266.719  264.297  262.671  265.312  264.884 
DATE 2017:067:02:47:09 obsn 682 az 327 el 32 freq_MHz  1422.8800 Tsys 231.636 Tant 32.897 vlsr   12.46 glat  0.107 glon 127.617 source G127.5 
Fstart 1421.877 fstop 1423.883 spacing 0.009375 bw    2.400 fbw    2.000 MHz nfreq 256 nsam 5242880 npoint 214 integ     2 sigma    1.619 bsw 0
Spectrum      2 integration periods
 260.231  260.838  261.269  260.496  265.280  262.608  264.287  264.617  261.886  258.659  260.094  259.737  261.059  259.300  263.259  260.801  260.044  260.117  259.130  259.707  256.893  264.327  261.726  263.519  260.893  264.419  262.824  264.343  264.752  262.073  261.594  262.072  261.936  262.981  262.420  262.005  264.356  260.275  261.371  260.925  261.799  262.599  258.577  262.484  265.444  266.321  266.189  264.840  262.552  259.891  263.467  265.325  259.515  260.837  263.050  261.391  263.892  260.060  263.087  261.016  264.702  259.947  263.648  261.152  265.214  263.602  262.674  260.886  263.171  262.756  266.755  263.206  264.658  266.328  262.601  267.171  263.018  263.828  263.202  261.521  263.773  266.591  267.748  262.390  264.247  263.448  265.688  260.962  264.898  262.224  264.444  264.373  265.840  261.051  265.763  263.320  266.553  265.266  265.889  268.071  266.929  265.776  266.236  263.666  264.255  262.715  266.081  268.782  266.870  266.577  264.252  263.357  263.517  263.854  262.254  265.323  267.715  264.044  264.496  263.980  266.227  263.674  264.352  263.287  265.667  266.319  266.502  265.020  266.801  264.911  265.072  263.775  261.355  263.142  264.535  264.750  262.473  267.893  265.026  262.733  267.452  260.166  264.874  266.996  264.462  264.607  268.154  266.011  262.046  264.468  262.982  267.879  263.667  264.384  264.823  262.489  269.043  265.582  263.703  266.283  265.758  265.666  264.156  266.138  264.635  266.137  264.409  268.046  264.461  266.575  264.110  266.514  264.857  266.324  267.201  264.566  263.184  262.983  267.270  264.926  269.004  264.097  263.813  265.255  265.971  267.689  266.889  265.336  267.153  268.647  266.319  263.674  265.022  264.229  267.377  266.919  266.047  267.632  265.923  268.100  266.150  264.632  264.486  264.281  267.443  264.426  265.306  268.680  268.465  266.325  264.312  266.041  267.287  269.073 
DATE 2017:067:02:47:30 obsn 683 az 326 el 34 freq_MHz  1422.8800 Tsys 231.636 Tant 33.478 vlsr   14.21 glat  0.114 glon 130.117 source G130.0 
Fstart 1421.877 fstop 1423.883 spacing 0.009375 bw    2.400 fbw    2.000 MHz nfreq 256 nsam 5242880 npoint 214 integ     2 sigma    1.619 bsw 0
Spectrum      2 integration periods
 261.416  265.436  260.757  262.991  263.044  262.033  262.346  260.378  263.629  265.275  260.868  262.855  265.946  260.594  264.155  264.768  261.739  261.736  263.422  260.755  264.171  262.046  260.793  263.707  262.274  261.351  263.816  263.552  261.669  264.686  260.358  260.734  263.062  263.784  263.938  263.281  264.220  262.450  263.490  262.489  261.565  264.267  263.996  263.021  261.559  264.100  262.370  261.953  263.228  262.538  262.190  264.039  263.674  263.576  262.736  267.656  264.990  265.304  264.374  262.372  260.766  263.653  265.927  263.947  262.860  257.110  263.305  265.636  263.562  266.512  259.752  261.593  260.724  260.492  260.545  263.322  261.445  263.951  268.328  261.258  263.431  262.412  265.917  262.701  263.625  265.456  267.699  263.644  266.287  263.042  265.172  265.446  260.629  261.781  262.607  273.524  266.078  264.320  263.509  262.756  263.862  263.483  265.882  263.457  267.414  265.538  264.049  265.784  261.782  266.633  266.039  264.731  267.792  263.784  265.724  270.474  266.743  265.269  267.322  264.028  265.270  263.708  267.595  265.372  263.024  263.221  264.324  263.583  261.198  265.476  262.653  265.807  263.653  266.022  266.394  263.670  265.145  264.983  264.964  268.267  263.240  266.987  264.890  269.148  264.145  263.299  267.903  266.148  268.263  266.492  266.346  265.663  265.884  263.589  265.130  266.642  266.436  266.536  266.557  262.220  263.185  264.626  266.891  269.273  266.841  269.249  264.717  263.462  267.011  265.567  264.197  263.877  265.370  264.392  264.070  264.856  267.095  266.157  267.898  264.174  263.013  267.794  264.710  266.437  269.274  267.998  265.542  265.825  264.611  266.067  268.022  264.973  269.021  265.500  267.753  266.011  268.404  265.975  266.309  266.805  265.579  267.791  265.856  264.207  267.385  268.352  267.897  266.558  266.081  268.095  264.730  263.995  264.616  266.322 
DATE 2017:067:02:47:52 obsn 684 az 325 el 36 freq_MHz  1422.8800 Tsys 231.636 Tant 29.329 vlsr   15.92 glat  0.122 glon 132.617 source G132.5 
Fstart 1421.877 fstop 1423.883 spacing 0.009375 bw    2.400 fbw    2.000 MHz nfreq 256 nsam 5242880 npoint 214 integ     3 sigma    1.322 bsw 0
Spectrum      3 integration periods
 258.197  259.815  258.671  260.066  260.489  260.923  260.808  260.253  261.384  262.119  258.969  261.960  260.691  259.171  261.028  257.055  261.001  260.736  260.250  261.468  260.682  262.461  260.680  262.318  258.033  261.921  258.317  259.512  260.931  258.809  257.683  257.997  259.592  262.191  258.208  258.615  259.613  261.371  259.439  259.580  260.301  258.448  261.852  259.444  258.220  259.967  259.814  261.861  259.822  259.786  259.278  258.803  259.787  260.762  260.620  259.390  258.502  258.267  262.182  260.874  259.447  260.893  259.650  261.283  260.623  260.272  259.595  260.929  258.464  258.338  259.248  260.143  258.916  259.348  260.057  258.636  259.311  262.408  259.641  259.905  259.202  258.311  261.451  261.126  261.255  259.388  263.892  260.057  260.054  258.827  260.598  260.701  262.168  258.107  261.705  267.227  263.097  262.389  259.894  260.733  258.934  261.239  259.982  260.820  259.128  260.371  261.691  264.830  261.430  263.723  262.491  264.696  261.043  261.954  262.142  263.031  266.168  264.541  263.021  260.555  259.435  262.447  264.136  262.265  264.400  261.685  260.992  262.782  263.809  262.267  262.331  261.827  261.174  261.023  263.395  263.241  262.284  260.632  262.427  260.546  262.238  261.894  262.710  261.188  262.432  262.513  261.627  262.799  261.193  261.999  260.744  263.160  265.281  262.490  261.435  263.942  263.776  263.613  263.442  261.597  262.377  263.139  262.747  260.618  262.202  261.638  262.275  263.165  261.944  260.833  261.214  262.602  262.764  261.996  260.230  262.497  261.935  260.079  262.575  263.769  260.275  262.163  261.183  263.804  262.765  261.437  260.001  263.182  262.036  262.115  263.676  262.895  260.695  262.982  262.424  262.422  261.852  262.264  260.195  261.513  260.894  261.907  262.127  265.968  261.687  259.384  261.929  264.438  263.152  264.984  262.947  262.703  262.297  263.874 
DATE 2017:067:02:48:13 obsn 685 az 323 el 39 freq_MHz  1422.8800 Tsys 231.636 Tant 29.952 vlsr   17.61 glat  0.129 glon 135.117 source G135.0 
Fstart 1421.877 fstop 1423.883 spacing 0.009375 bw    2.400 fbw    2.000 MHz nfreq 256 nsam 5242880 npoint 214 integ     3 sigma    1.322 bsw 0
Spectrum      3 integration periods
 256.276  254.921  261.629  258.695  261.293  261.094  257.805  259.795  259.170  261.214  259.456  262.630  258.124  258.911  259.125  261.260  258.174  256.488  259.518  259.600  260.467  260.392  261.337  258.851  260.686  261.303  260.995  263.099  260.326  260.165  261.178  261.000  258.822  261.835  260.385  259.732  257.636  259.199  260.592  259.811  260.815  257.857  261.542  259.990  257.722  259.934  259.641  260.234  261.148  259.739  258.918  259.600  260.542  258.524  260.997  259.318  263.316  258.141  258.754  259.555  259.416  259.937  258.918  259.205  259.466  258.377  261.943  258.772  261.999  258.625  261.799  259.404  258.944  258.259  261.131  259.568  260.662  259.732  260.738  260.323  261.111  260.482  261.383  259.540  260.344  257.883  259.424  260.692  262.149  260.337  261.030  257.506  260.045  258.691  258.581  259.144  258.935  259.853  258.524  260.478  261.593  257.842  260.675  261.037  261.216  257.941  261.513  259.753  262.209  260.433  260.285  262.364  258.278  260.091  262.117  263.788  263.068  262.434  260.678  262.793  262.408  261.817  263.577  264.305  262.124  261.954  262.176  259.807  261.444  261.409  262.565  259.572  261.204  259.824  263.223  261.414  261.464  261.924  261.415  263.690  259.437  262.277  261.221  262.635  264.009  260.837  261.499  259.011  263.198  261.226  261.323  261.370  260.983  262.107  262.538  262.243  258.733  264.924  261.573  258.991  260.986  263.812  263.269  263.736  259.378  261.582  260.621  262.465  260.814  260.369  262.292  263.084  261.562  260.207  261.675  261.939  263.882  260.824  262.742  265.386  262.237  267.300  262.338  264.210  263.392  264.378  262.426  263.482  262.001  262.086  265.969  261.676  264.325  259.587  264.227  262.542  261.914  261.538  261.618  262.291  262.241  261.583  264.891  260.581  262.939  260.988  260.285  260.596  261.144  260.477  262.506  261.825  262.980  262.794 
DATE 2017:067:02:48:34 obsn 686 az 322 el 41 freq_MHz  1422.8800 Tsys 231.636 Tant 30.441 vlsr   19.27 glat  0.136 glon 137.617 source G137.5 
Fstart 1421.877 fstop 1423.883 spacing 0.009375 bw    2.400 fbw    2.000 MHz nfreq 256 nsam 5242880 npoint 214 integ     4 sigma    1.145 bsw 0
Spectrum      4 integration periods
 257.169  259.044  261.505  260.105  259.692  260.508  259.668  259.528  262.219  259.922  258.412  259.980  259.223  259.856  259.115  258.448  260.884  259.354  262.984  261.826  260.528  260.636  262.345  263.539  261.641  258.806  263.837  259.802  261.473  261.115  260.841  261.527  264.039  260.557  260.378  261.551  261.943  263.694  259.782  260.756  261.343  263.323  259.979  259.342  259.110  260.667  260.777  260.027  261.307  260.864  259.302  259.938  261.989  260.472  259.410  259.778  259.026  258.618  259.478  262.287  260.877  263.336  261.935  258.074  260.202  261.613  261.926  262.253  261.512  261.952  259.489  261.919  259.695  261.060  261.253  263.879  261.579  262.084  263.392  263.007  261.833  261.035  261.055  261.851  260.259  260.720  261.668  260.727  260.163  260.973  262.172  260.892  261.601  262.387  262.205  262.271  262.656  263.419  261.390  265.373  262.182  262.666  262.529  262.415  261.379  261.058  260.461  260.876  261.074  260.654  261.217  260.371  263.370  260.938  261.867  260.222  261.439  261.310  262.789  259.254  262.222  263.436  262.342  262.002  263.063  261.176  263.143  261.670  259.329  262.199  260.641  264.132  263.775  262.722  263.204  263.530  262.779  262.044  262.979  262.611  262.531  264.289  261.754  261.815  261.129  261.670  262.601  262.772  263.538  263.324  262.368  259.984  262.213  263.989  263.756  262.244  263.015  263.623  261.745  263.131  264.198  264.014  264.299  262.617  262.143  264.437  262.024  264.992  262.711  262.400  261.408  260.929  262.748  264.374  263.266  262.710  263.427  264.456  261.351  262.111  261.288  265.463  262.946  262.404  263.408  262.425  265.486  263.787  262.847  264.155  262.145  262.415  263.576  263.237  261.725  263.829  263.737  263.087  261.327  262.494  263.581  263.488  263.084  263.812  262.058  262.727  262.517  265.277  260.792  262.603  263.965  263.597  263.194  262.843 
DATE 2017:067:02:48:55 obsn 687 az 320 el 43 freq_MHz  1422.8800 Tsys 231.636 Tant 31.420 vlsr   20.89 glat  0.142 glon 140.117 source G140.0 
Fstart 1421.877 fstop 1423.883 spacing 0.009375 bw    2.400 fbw    2.000 MHz nfreq 256 nsam 5242880 npoint 214 integ     4 sigma    1.145 bsw 0
Spectrum      4 integration periods
