DATE 2017:067:02:18:33 obsn 626 az  90 el  0 freq_MHz  1422.8800 Tsys 231.636 Tant 398.544 vlsr  -17.22 glat 62.898 glon 303.661 source at_stow
Fstart 1421.877 fstop 1423.883 spacing 0.009375 bw    2.400 fbw    2.000 MHz nfreq 256 nsam 5242880 npoint 214 integ   722 sigma    0.089 bsw 0
Spectrum    661 integration periods
 597.376  602.740  602.578  602.376  605.579  603.916  603.853  605.193  605.648  603.366  600.690  606.185  604.195  602.858  603.422  603.162  606.751  617.874  607.130  612.244  609.974  612.928  615.546  619.137  616.396  614.730  614.715  618.858  619.349  615.087  624.670  611.604  617.153  611.733  610.799  614.461  616.810  614.125  616.473  616.187  613.615  613.827  614.525  615.753  614.490  627.804  625.805  611.787  613.746  613.376  614.306  617.144  614.217  612.398  615.343  615.017  614.434  615.636  621.468  620.294  619.491  631.869  622.240  623.415  623.121  625.389  624.757  624.016  621.561  622.007  624.845  622.663  621.352  621.483  623.892  630.405  623.289  619.836  620.208  629.635  628.252  622.791  621.029  622.407  619.505  620.489  621.005  621.287  619.469  620.062  623.962  622.895  631.491  622.173  624.591  699.011  623.032  624.368  626.982  625.870  627.565  630.606  630.977  631.745  632.475  635.620  634.394  632.813  631.130  635.151  632.753  631.850  632.036  632.240  634.267  630.062  632.058  640.859  638.338  630.971  630.309  632.979  638.322  640.416  632.586  629.401  634.839  629.104  631.205  630.712  633.223  630.231  644.258  633.916  632.619  633.383  636.338  637.364  639.004  638.652  640.619  643.882  642.103  641.537  642.929  643.956  646.037  646.194  644.148  641.378  640.650  640.667  643.664  641.004  640.301  654.174  648.244  640.115  639.069  638.898  641.927  642.023  639.286  640.119  653.589  647.781  639.230  641.137  643.732  643.446  639.913  643.108  641.438  647.034  641.980  643.413  645.346  644.805  643.963  645.696  645.653  646.541  647.997  651.418  650.481  650.133  657.310  648.868  651.399  648.803  647.204  646.272  646.040  644.209  645.803  645.787  644.730  644.326  645.633  647.138  647.351  646.737  648.778  647.097  648.869  647.397  647.218  646.915  646.796  646.719  647.025  652.436  647.540  646.847 
DATE 2017:067:02:21:31 obsn 627 az 335 el  9 freq_MHz  1422.8800 Tsys 231.636 Tant 43.090 vlsr   -7.56 glat  0.014 glon 100.118 source G100.0 
Fstart 1421.877 fstop 1423.883 spacing 0.009375 bw    2.400 fbw    2.000 MHz nfreq 256 nsam 5242880 npoint 214 integ    11 sigma    0.724 bsw 0
Spectrum     10 integration periods
 303.385  304.387  305.850  306.329  307.149  305.666  305.946  306.250  305.990  306.418  306.688  305.832  305.099  305.372  306.591  306.591  305.411  310.329  307.638  306.258  304.565  310.472  308.730  307.464  307.359  308.788  307.670  309.046  307.475  308.094  308.898  306.634  308.835  306.738  308.438  309.045  308.710  308.028  308.486  307.612  308.003  309.152  305.551  307.489  308.472  308.287  309.136  307.704  307.693  309.014  310.008  308.503  307.730  308.189  307.278  308.196  308.440  307.581  309.775  308.599  310.072  311.557  311.748  309.563  310.121  310.442  310.955  308.978  309.686  307.926  308.332  308.908  308.923  305.737  308.646  308.209  309.381  309.036  309.071  308.598  309.071  309.956  309.645  309.425  309.451  308.066  308.855  308.371  308.024  308.343  308.066  307.698  308.525  309.180  308.151  321.177  308.257  308.547  311.412  310.434  309.516  309.408  310.320  309.358  310.996  311.787  311.600  311.983  312.176  311.905  310.500  310.611  309.795  311.746  311.026  311.050  309.541  312.201  311.194  311.422  309.634  311.003  310.330  310.627  308.931  310.336  311.087  309.715  307.586  310.778  310.435  309.336  313.325  311.515  309.889  309.999  310.641  312.680  311.037  309.114  310.613  311.919  310.186  309.951  309.673  309.652  310.436  312.448  310.389  312.174  310.703  311.245  310.375  309.400  310.141  310.560  311.779  309.790  311.633  308.745  311.325  310.728  307.903  309.305  311.565  311.838  310.545  312.077  309.453  311.465  308.328  309.274  308.705  310.603  308.758  310.213  309.686  311.321  311.966  311.641  310.903  309.791  309.812  312.869  311.955  312.723  311.857  311.124  312.353  312.783  310.613  312.479  310.523  311.256  310.397  309.715  311.334  310.167  309.502  310.472  309.690  307.805  311.250  311.512  311.721  311.339  310.871  310.051  310.830  309.413  311.492  310.852  310.881  311.369 
DATE 2017:067:02:21:44 obsn 628 az 335 el  9 freq_MHz  1422.8800 Tsys 231.636 Tant 43.750 vlsr   -7.56 glat  0.014 glon 100.118 source G100.0 
Fstart 1421.877 fstop 1423.883 spacing 0.009375 bw    2.400 fbw    2.000 MHz nfreq 256 nsam 5242880 npoint 214 integ    22 sigma    0.512 bsw 0
Spectrum     20 integration periods
 287.799  288.699  289.066  290.206  290.113  290.238  290.747  289.874  289.307  290.181  289.828  289.009  288.849  289.413  290.015  289.732  289.240  292.893  290.844  289.840  289.408  292.679  291.848  291.037  290.929  291.689  291.431  291.053  291.447  290.788  291.852  290.725  292.001  289.893  291.886  292.213  292.219  291.149  291.023  291.120  291.036  291.746  289.190  290.573  291.726  291.235  291.775  290.879  290.894  290.963  292.070  291.226  291.263  290.951  290.587  291.933  291.953  290.347  292.458  291.126  292.445  294.142  293.224  293.065  293.829  293.306  292.908  291.794  291.916  291.816  291.338  292.212  291.308  289.955  291.779  291.109  291.861  291.880  291.885  290.999  291.800  291.801  291.336  291.790  292.561  290.944  291.696  290.903  290.215  291.189  291.295  291.160  291.264  291.068  290.706  300.440  292.274  291.463  292.741  292.772  292.226  292.399  292.520  292.597  293.029  294.033  293.666  292.885  293.503  293.092  292.348  292.376  292.152  292.760  292.383  293.128  292.173  293.510  292.717  292.720  291.373  292.088  292.286  292.619  290.757  292.433  292.548  292.461  291.412  292.455  293.000  291.037  295.150  292.211  291.985  292.019  292.781  293.475  292.596  291.589  292.861  293.323  292.270  292.562  291.739  292.495  292.934  293.183  292.760  293.262  292.931  292.658  291.535  290.820  291.405  292.777  294.099  292.306  293.059  291.695  292.612  292.335  291.085  291.650  292.483  292.059  291.901  292.640  291.839  292.061  290.899  291.933  290.646  292.698  291.650  292.319  291.752  292.644  293.042  293.144  292.541  292.123  292.012  293.362  293.239  293.069  293.528  292.826  293.444  293.682  291.723  293.388  291.617  292.539  292.072  292.077  292.199  292.119  292.122  292.507  291.513  290.392  292.436  292.024  292.342  292.230  291.797  291.748  292.433  290.813  292.626  291.481  292.199  292.763 
DATE 2017:067:02:21:58 obsn 629 az 335 el  9 freq_MHz  1422.8800 Tsys 231.636 Tant 43.784 vlsr   -7.56 glat  0.014 glon 100.118 source G100.0 
Fstart 1421.877 fstop 1423.883 spacing 0.009375 bw    2.400 fbw    2.000 MHz nfreq 256 nsam 5242880 npoint 214 integ    33 sigma    0.418 bsw 0
Spectrum     30 integration periods
 282.388  283.283  284.282  284.718  284.889  285.140  285.277  284.862  284.016  284.544  284.358  284.022  283.648  284.146  285.466  284.695  284.155  286.922  285.475  284.991  284.491  286.960  286.311  285.623  285.926  285.839  286.376  285.487  286.100  285.281  285.887  285.555  286.343  284.877  286.076  285.969  286.832  286.503  285.175  285.309  285.742  285.985  284.516  285.490  285.871  285.727  286.237  286.120  285.308  285.148  285.930  285.907  285.873  285.804  285.022  286.116  285.743  285.544  286.429  286.062  286.389  288.383  287.233  287.976  288.383  287.755  287.011  286.370  286.322  286.191  286.388  286.359  285.839  284.449  286.585  285.890  286.031  286.167  285.810  285.499  285.917  286.121  286.097  285.437  286.526  285.515  286.313  285.749  284.733  285.949  285.678  285.181  285.764  285.706  285.421  293.317  286.961  286.607  286.956  286.671  286.321  286.542  286.371  286.920  287.760  287.794  287.754  287.161  287.141  287.349  287.136  287.138  286.581  287.520  286.826  287.070  286.686  287.075  287.048  286.729  285.577  286.467  286.574  286.277  285.285  286.817  286.995  286.768  285.901  286.473  287.026  285.797  289.764  286.308  286.140  286.338  286.781  287.230  286.968  286.159  287.040  287.821  286.383  286.857  286.313  286.666  287.427  287.352  286.627  286.747  287.389  286.613  285.941  285.448  285.721  287.062  287.790  286.697  286.294  285.631  286.788  286.672  285.277  286.004  286.792  286.279  285.943  286.659  286.403  285.898  285.028  285.994  285.452  286.842  285.932  286.332  286.065  286.376  287.035  286.684  286.554  286.110  285.824  287.161  286.910  286.521  286.934  287.122  287.381  287.611  286.275  286.968  285.367  286.585  286.504  286.278  285.562  286.370  285.846  286.448  285.869  285.039  285.917  285.881  285.995  285.964  286.079  285.678  286.418  285.249  286.028  286.152  286.040  286.533 
DATE 2017:067:02:22:11 obsn 630 az 335 el  9 freq_MHz  1422.8800 Tsys 231.636 Tant 44.492 vlsr   -7.56 glat  0.014 glon 100.118 source G100.0 
Fstart 1421.877 fstop 1423.883 spacing 0.009375 bw    2.400 fbw    2.000 MHz nfreq 256 nsam 5242880 npoint 214 integ    44 sigma    0.362 bsw 0
Spectrum     40 integration periods
 280.105  281.037  281.863  282.493  282.544  282.457  282.855  282.292  281.644  282.218  282.044  281.782  280.939  281.618  282.609  282.054  281.598  284.180  282.684  282.703  282.246  284.076  283.308  283.337  283.241  283.425  283.808  282.954  283.359  283.017  283.608  283.002  283.704  282.313  283.515  283.633  284.204  283.756  282.652  282.678  283.657  283.108  282.615  282.668  283.362  283.951  283.404  283.067  282.726  282.711  283.814  283.412  283.302  283.068  282.863  283.567  283.230  283.284  283.623  283.052  283.863  285.481  284.457  285.171  285.331  284.715  284.692  283.999  283.650  283.681  283.717  283.608  282.859  282.315  284.172  283.353  283.467  283.431  283.422  282.874  283.199  283.015  283.629  282.907  283.764  282.876  283.527  283.306  282.397  283.158  283.331  282.735  283.484  282.983  282.740  290.196  284.138  283.831  284.082  283.922  283.719  283.790  283.801  284.253  285.023  284.603  284.786  284.319  284.606  284.474  283.881  284.296  283.887  284.750  283.714  284.512  284.091  284.612  284.415  284.081  283.277  283.531  284.009  283.801  282.833  283.850  284.040  283.942  283.181  283.467  284.224  283.350  287.230  283.749  283.383  283.557  283.752  284.461  284.549  283.475  283.998  284.911  283.831  283.903  283.330  283.676  284.328  284.532  284.010  284.187  284.630  283.765  283.203  282.699  283.177  284.358  284.660  283.784  283.719  283.242  284.136  284.334  282.902  283.464  284.124  283.708  283.362  283.758  283.283  283.088  282.345  283.408  282.893  283.936  283.218  283.355  283.348  284.018  284.317  284.229  283.899  283.339  283.382  284.372  284.197  284.179  284.227  284.531  284.693  284.225  283.285  283.963  282.982  283.696  284.095  283.444  282.596  283.515  282.949  283.671  283.303  282.465  283.288  282.670  283.048  282.844  283.283  282.650  283.976  282.394  282.944  283.559  282.981  283.779 
DATE 2017:067:02:23:08 obsn 631 az 315 el 53 freq_MHz  1422.8800 Tsys 231.636 Tant 40.026 vlsr   25.50 glat  0.161 glon 147.617 source G147.5 
Fstart 1421.877 fstop 1423.883 spacing 0.009375 bw    2.400 fbw    2.000 MHz nfreq 256 nsam 5242880 npoint 214 integ     7 sigma    0.935 bsw 0
Spectrum      6 integration periods
 267.780  268.218  270.510  269.200  270.496  269.705  270.524  269.386  269.774  269.057  270.689  269.745  270.475  270.416  267.360  271.321  267.576  270.428  271.382  270.755  269.844  272.441  271.488  271.649  270.881  271.312  272.221  270.799  270.739  269.758  271.578  271.639  270.643  272.757  272.568  270.260  270.740  270.627  271.674  270.380  271.270  269.971  269.123  269.256  271.727  270.704  271.996  270.724  270.935  271.623  270.521  269.527  272.361  270.308  268.241  270.449  270.238  270.811  269.976  268.828  270.813  272.708  273.877  272.825  272.819  272.659  272.060  271.567  270.310  271.454  272.041  272.273  271.324  271.967  271.843  272.102  269.192  270.036  272.069  271.826  270.980  271.501  271.090  269.237  269.846  269.770  268.659  270.113  272.076  270.661  268.337  270.446  270.461  268.640  271.335  275.602  271.066  270.741  272.334  271.422  272.281  271.680  272.282  270.082  271.285  271.688  270.472  268.261  270.250  270.785  269.930  270.748  272.583  272.647  268.849  271.747  272.656  269.319  269.772  271.569  269.681  271.916  272.312  271.699  271.440  271.366  272.379  271.336  271.220  269.305  271.777  269.344  272.789  271.077  271.075  270.683  270.490  271.385  268.274  271.327  274.258  272.220  273.110  273.281  271.247  272.720  272.133  270.234  269.673  271.565  272.585  271.668  271.729  272.192  271.116  271.525  271.782  271.036  271.781  270.010  270.753  271.410  271.341  271.980  273.937  270.988  271.330  272.250  272.170  271.911  271.951  272.222  269.921  270.590  270.883  271.984  271.487  273.025  271.396  271.857  272.298  271.423  272.413  271.924  271.094  271.216  272.387  274.504  274.061  273.801  274.290  273.161  274.091  273.630  273.606  271.769  272.653  272.039  272.791  271.021  271.495  272.001  273.814  270.258  273.309  269.205  271.760  272.316  271.407  268.895  268.908  270.099  272.567  273.505 
DATE 2017:067:02:23:21 obsn 632 az 315 el 53 freq_MHz  1422.8800 Tsys 231.636 Tant 39.567 vlsr   25.50 glat  0.161 glon 147.617 source G147.5 
Fstart 1421.877 fstop 1423.883 spacing 0.009375 bw    2.400 fbw    2.000 MHz nfreq 256 nsam 5242880 npoint 214 integ    17 sigma    0.572 bsw 0
Spectrum     16 integration periods
 266.430  267.617  270.342  268.834  268.936  269.175  269.239  268.487  268.947  269.040  268.452  269.131  269.605  269.482  267.481  269.469  268.382  269.094  269.264  269.087  268.888  270.864  270.709  270.894  269.759  270.655  271.275  270.338  271.464  269.819  271.056  270.494  270.194  271.016  271.273  271.040  270.866  270.979  271.436  270.978  269.873  269.290  268.924  269.635  271.388  270.766  271.348  270.504  270.240  270.537  269.473  269.099  271.518  269.320  268.528  269.059  269.372  270.168  269.777  269.580  268.946  271.228  270.812  271.125  271.630  270.939  270.824  270.156  269.947  269.473  271.007  270.772  270.790  270.736  270.065  270.508  269.201  269.157  269.990  269.721  269.828  270.791  270.682  269.458  269.408  270.122  269.158  269.803  270.547  269.861  269.100  269.660  269.797  269.706  270.253  274.453  270.754  270.191  270.786  270.911  271.434  271.429  271.393  270.876  270.721  270.126  270.053  269.796  270.165  270.459  270.200  271.018  271.594  271.007  269.412  270.920  270.332  269.476  269.795  270.969  271.234  271.235  272.359  270.457  270.792  270.925  272.074  270.801  271.430  270.797  271.106  269.651  271.594  271.022  270.929  270.441  270.256  270.805  270.106  271.098  272.625  272.918  272.065  272.841  272.128  272.577  272.143  271.728  270.768  271.858  272.819  271.578  271.546  271.154  270.667  271.975  271.769  271.526  271.473  269.967  270.031  270.476  270.867  271.138  271.893  270.162  269.698  270.740  271.031  270.238  271.380  271.546  270.023  270.080  270.498  271.610  271.091  271.687  271.996  272.071  271.742  272.211  271.979  270.268  272.149  271.650  272.951  273.838  273.192  273.746  273.186  272.907  273.599  272.703  271.836  272.506  273.424  272.281  272.679  271.404  271.843  272.024  272.649  271.677  272.621  270.569  270.368  271.844  271.945  271.020  269.641  270.326  272.153  271.613 
DATE 2017:067:02:23:57 obsn 633 az 329 el 28 freq_MHz  1422.8800 Tsys 231.636 Tant 39.290 vlsr    7.09 glat  0.083 glon 120.117 source G120.0 
Fstart 1421.877 fstop 1423.883 spacing 0.009375 bw    2.400 fbw    2.000 MHz nfreq 256 nsam 5242880 npoint 214 integ     8 sigma    0.865 bsw 0
Spectrum      7 integration periods
 265.798  265.099  266.812  266.800  267.559  269.068  268.372  267.284  264.943  267.559  267.779  267.906  265.513  269.037  270.931  267.681  266.290  267.252  267.645  267.065  268.627  269.279  269.559  268.980  270.397  269.802  267.580  270.397  271.865  268.555  269.566  267.130  270.005  269.759  271.046  269.995  269.401  269.898  268.830  267.960  268.364  270.461  269.525  270.151  268.630  268.552  268.900  267.165  268.399  268.366  269.633  270.657  269.828  268.430  268.933  267.155  269.922  271.103  269.740  270.916  268.532  268.248  268.191  268.487  269.243  269.971  269.651  269.469  268.348  270.681  270.734  269.305  268.955  268.206  270.106  268.847  269.311  268.324  269.141  269.446  268.481  267.945  269.527  270.055  269.588  269.518  269.288  269.249  270.516  269.553  268.998  269.958  269.349  270.106  270.467  272.399  272.355  271.510  270.321  271.152  270.406  270.854  271.078  268.424  270.408  268.458  272.274  268.490  270.085  270.801  270.073  271.392  272.135  270.307  270.884  271.484  270.416  270.627  271.561  268.884  269.950  271.287  271.684  271.247  270.637  270.678  271.931  272.358  271.132  271.026  271.401  270.599  270.335  269.941  269.292  271.726  270.322  270.869  273.156  271.728  269.901  270.475  273.621  272.720  271.674  272.027  271.669  270.502  270.610  271.282  271.872  272.585  269.237  270.321  271.491  271.481  272.024  271.223  269.502  270.541  270.706  270.116  272.252  272.866  271.102  271.221  271.888  271.193  271.145  272.676  271.358  271.532  271.836  271.704  272.358  272.557  270.449  271.866  271.776  272.471  272.803  272.251  274.063  273.521  272.985  271.576  272.316  270.996  271.938  272.274  273.881  272.487  273.279  273.528  272.397  271.808  270.942  271.881  272.004  271.522  270.862  272.792  273.179  273.149  271.819  273.276  273.055  272.760  271.096  272.828  271.447  272.715  272.789  271.741 
DATE 2017:067:02:24:18 obsn 634 az 328 el 30 freq_MHz  1422.8800 Tsys 231.636 Tant 38.552 vlsr    8.90 glat  0.091 glon 122.617 source G122.5 
Fstart 1421.877 fstop 1423.883 spacing 0.009375 bw    2.400 fbw    2.000 MHz nfreq 256 nsam 5242880 npoint 214 integ     8 sigma    0.865 bsw 0
Spectrum      7 integration periods
