DATE 2017:067:01:41:52 obsn 570 az 331 el 12 freq_MHz  1422.8800 Tsys 231.636 Tant 40.278 vlsr   -7.56 glat  0.014 glon 100.118 source G100.0 
Fstart 1421.877 fstop 1423.883 spacing 0.009375 bw    2.400 fbw    2.000 MHz nfreq 256 nsam 5242880 npoint 214 integ     8 sigma    0.865 bsw 0
Spectrum      7 integration periods
 312.791  312.960  315.248  313.210  314.820  315.590  314.122  313.614  315.683  314.195  313.790  315.954  312.604  313.427  316.530  315.210  314.783  323.014  315.310  317.411  315.545  317.265  316.610  316.958  318.829  317.172  317.697  317.012  316.191  318.004  318.245  316.652  318.660  317.251  314.520  316.779  317.448  315.859  315.822  317.163  316.355  317.941  317.646  318.087  317.815  315.802  318.986  317.058  316.101  315.773  318.451  318.110  319.474  318.493  315.657  320.265  317.372  317.855  319.105  317.746  315.545  318.138  319.896  319.098  319.850  321.835  319.347  317.437  319.211  318.099  319.158  319.765  317.014  317.605  318.983  317.362  316.808  317.736  319.349  319.180  317.322  318.750  317.428  318.734  316.024  314.518  318.828  319.826  316.951  318.917  316.868  319.052  320.794  318.230  319.667  332.851  320.438  319.454  318.188  319.728  319.387  320.644  320.121  320.655  321.141  319.813  322.321  318.829  320.699  321.111  317.662  321.453  320.410  320.006  320.800  321.997  322.444  321.347  319.882  320.921  321.069  321.107  322.814  321.256  320.602  320.974  318.817  320.511  319.895  319.789  319.849  319.770  324.996  318.520  319.793  321.021  320.968  319.128  319.441  318.186  320.900  321.273  321.454  322.549  320.567  320.245  321.806  325.066  322.065  320.646  320.703  320.959  322.028  323.249  320.688  321.599  322.836  321.702  322.192  321.943  322.457  319.728  322.037  321.068  322.462  321.536  319.411  320.949  322.833  320.492  317.924  318.771  322.963  321.921  321.166  323.701  324.117  322.507  322.239  320.412  321.335  321.651  321.770  321.469  323.817  321.890  321.185  321.416  323.059  320.309  320.562  323.641  322.447  322.433  322.158  321.111  319.340  321.650  321.574  319.535  320.865  321.955  321.906  321.092  320.015  322.453  321.714  321.244  321.935  321.329  321.154  324.185  322.902  322.757 
DATE 2017:067:01:42:14 obsn 571 az 331 el 15 freq_MHz  1422.8800 Tsys 231.636 Tant 40.175 vlsr   -5.74 glat  0.023 glon 102.618 source G102.5 
Fstart 1421.877 fstop 1423.883 spacing 0.009375 bw    2.400 fbw    2.000 MHz nfreq 256 nsam 5242880 npoint 214 integ     7 sigma    0.935 bsw 0
Spectrum      6 integration periods
 265.452  267.993  269.645  269.774  269.677  268.980  270.803  269.501  268.765  268.445  268.811  269.025  268.541  268.366  270.328  271.333  269.887  272.253  269.087  269.523  271.164  270.011  271.403  269.743  270.387  270.924  270.461  269.201  269.563  268.077  269.495  268.833  270.034  270.042  269.505  270.952  269.470  267.616  268.419  269.260  271.021  269.625  268.534  272.467  271.568  270.795  269.342  271.115  268.995  271.017  270.415  273.403  272.865  268.847  270.249  270.753  270.830  270.758  271.185  271.171  269.877  270.843  272.200  270.797  271.247  272.047  272.775  272.054  271.178  271.695  269.984  270.884  270.392  270.235  270.132  270.150  268.323  269.626  269.605  269.519  269.895  269.757  268.908  271.834  271.064  271.412  269.899  272.671  269.731  270.703  270.542  269.869  271.112  269.257  274.517  276.746  270.825  272.504  270.726  271.378  271.276  272.482  272.699  271.922  271.237  273.363  271.631  271.290  273.032  275.160  273.054  271.617  272.944  272.000  273.224  273.250  272.534  272.217  270.052  271.306  271.586  270.694  271.740  273.127  272.854  271.758  271.590  272.042  271.181  272.972  272.286  274.743  275.287  270.209  271.936  270.570  271.910  272.793  272.801  270.409  272.149  272.435  271.403  270.973  273.032  269.197  271.164  273.682  270.464  272.638  273.209  271.778  270.460  271.758  270.513  272.436  273.369  270.771  271.066  271.453  271.264  272.809  270.679  271.581  273.447  274.460  272.959  271.799  272.361  272.707  270.095  273.570  270.351  271.570  271.722  270.536  271.623  273.558  272.773  273.705  271.479  272.425  271.433  270.659  270.639  271.644  272.063  274.176  273.094  272.532  273.269  273.141  272.755  272.528  271.086  272.392  271.215  274.024  269.650  270.317  271.796  272.343  273.188  270.875  270.252  270.351  271.398  271.165  271.375  270.676  272.766  272.911  271.387  272.975 
DATE 2017:067:01:42:35 obsn 572 az 330 el 17 freq_MHz  1422.8800 Tsys 231.636 Tant 40.333 vlsr   -3.91 glat  0.031 glon 105.118 source G105.0 
Fstart 1421.877 fstop 1423.883 spacing 0.009375 bw    2.400 fbw    2.000 MHz nfreq 256 nsam 5242880 npoint 214 integ     8 sigma    0.865 bsw 0
Spectrum      7 integration periods
 266.776  267.095  267.909  269.495  268.688  267.867  267.889  268.881  269.551  267.447  267.057  269.038  267.879  269.924  269.864  269.305  269.563  269.161  268.546  269.552  269.283  269.710  268.811  269.939  269.197  268.210  267.075  268.962  270.194  269.530  270.816  270.501  269.762  269.315  270.098  268.431  269.798  269.581  267.641  269.869  268.890  270.256  268.516  269.763  270.025  269.583  268.895  270.014  268.736  270.720  269.412  270.321  271.560  271.570  270.510  270.461  269.127  269.991  270.658  270.815  270.672  271.066  271.804  271.096  271.003  270.192  270.003  269.787  269.644  270.241  272.487  269.013  269.927  267.871  271.573  269.831  268.797  268.114  269.453  269.419  270.067  269.531  267.854  270.107  269.059  269.219  269.468  270.529  269.906  268.837  268.261  269.159  270.580  270.473  269.154  271.157  271.256  270.329  270.068  270.983  272.178  271.858  270.650  270.639  270.167  271.706  271.908  272.553  273.528  272.717  271.117  271.676  271.341  271.629  272.455  271.289  272.567  272.506  270.739  270.545  268.773  272.158  271.077  273.514  271.671  271.612  273.211  270.802  270.079  269.504  272.358  271.497  270.228  270.352  272.854  270.470  270.054  270.279  271.912  272.512  271.544  270.970  271.666  269.288  269.955  270.925  271.700  270.869  272.057  271.183  272.209  270.526  271.405  269.917  271.836  271.503  271.648  271.527  270.771  270.714  271.499  273.259  270.402  268.690  271.942  270.506  269.893  273.035  271.820  270.409  271.077  274.141  272.334  271.604  272.413  271.183  272.079  271.842  270.216  270.638  273.078  271.738  270.488  270.851  270.328  271.682  271.103  272.009  271.076  271.243  272.684  271.641  272.612  270.628  271.998  271.940  269.634  271.391  271.122  269.752  272.031  269.842  271.269  271.888  271.154  272.683  272.415  272.282  273.302  271.240  271.833  273.960  269.383  271.781 
DATE 2017:067:01:42:56 obsn 573 az 330 el 20 freq_MHz  1422.8800 Tsys 231.636 Tant 37.965 vlsr   -2.07 glat  0.040 glon 107.618 source G107.5 
Fstart 1421.877 fstop 1423.883 spacing 0.009375 bw    2.400 fbw    2.000 MHz nfreq 256 nsam 5242880 npoint 214 integ     8 sigma    0.865 bsw 0
Spectrum      7 integration periods
 265.406  266.964  266.991  267.120  266.868  266.830  269.861  265.352  267.642  267.609  265.192  264.694  268.402  267.559  267.113  267.584  267.185  268.644  268.120  267.452  267.849  268.306  268.982  268.488  269.771  269.097  267.147  267.759  268.712  269.375  268.619  268.202  267.553  267.241  265.794  267.947  267.663  268.826  269.180  268.563  266.770  267.423  267.069  267.267  267.905  269.069  267.316  268.432  267.529  267.976  267.508  267.151  268.012  268.902  267.935  266.982  267.515  267.891  269.259  269.030  269.433  268.415  268.046  269.662  269.391  268.313  267.682  268.384  269.889  269.025  267.080  268.434  267.310  266.094  268.837  269.982  268.085  266.908  267.170  267.510  267.309  267.784  267.922  269.754  268.897  269.053  267.045  268.607  267.131  268.372  268.598  267.460  267.564  270.091  267.475  270.243  269.274  268.965  268.637  269.681  270.759  268.732  268.058  270.441  269.276  268.798  270.412  268.428  268.627  269.735  269.395  268.724  269.299  271.634  268.965  268.642  268.886  269.530  269.149  268.387  268.994  269.015  269.783  270.432  270.629  270.764  270.296  269.611  269.593  269.788  269.510  270.259  270.242  265.679  268.313  269.164  268.489  268.928  270.241  270.432  269.737  268.609  268.165  268.966  267.685  267.651  269.426  271.082  270.026  269.423  271.004  269.295  270.160  269.120  271.322  269.129  269.477  270.115  270.419  269.158  268.828  271.688  270.151  270.094  270.361  269.643  269.088  270.889  269.074  270.899  269.518  268.398  269.157  268.186  269.674  268.838  269.066  269.761  268.964  269.997  269.997  269.195  269.641  271.334  272.466  270.465  271.662  272.014  269.880  268.669  270.720  270.471  270.173  271.847  270.916  273.193  271.254  272.108  270.118  270.836  270.629  270.576  270.061  271.263  269.512  270.958  270.784  269.573  272.227  270.500  269.890  271.440  271.035  271.510 
DATE 2017:067:01:43:17 obsn 574 az 329 el 22 freq_MHz  1422.8800 Tsys 231.636 Tant 39.020 vlsr   -0.23 glat  0.049 glon 110.118 source G110.0 
Fstart 1421.877 fstop 1423.883 spacing 0.009375 bw    2.400 fbw    2.000 MHz nfreq 256 nsam 5242880 npoint 214 integ     9 sigma    0.809 bsw 0
Spectrum      8 integration periods
 267.571  267.147  270.316  267.625  268.422  268.360  268.937  267.390  268.649  268.821  267.988  266.891  267.543  268.862  267.119  268.405  267.245  266.641  267.626  269.043  268.986  267.634  267.684  269.270  269.945  268.944  267.508  270.675  269.367  267.387  267.525  266.669  269.327  268.621  269.290  267.128  268.666  269.289  269.813  269.256  269.818  268.850  267.584  266.729  268.370  269.322  268.669  267.577  267.775  269.594  267.782  268.555  269.171  267.282  268.145  268.102  268.637  268.472  270.076  270.082  269.117  268.001  270.538  268.742  271.792  268.469  269.990  269.993  268.218  269.585  267.651  269.741  269.658  267.345  268.376  268.470  269.212  268.091  269.787  270.841  270.512  268.320  268.646  267.291  269.863  268.469  267.976  268.034  267.271  267.315  269.080  270.489  270.453  268.054  269.267  271.716  269.282  270.040  269.203  268.671  269.849  268.990  271.301  270.721  270.103  269.597  269.524  268.875  269.939  268.959  269.308  270.572  270.320  270.022  269.474  270.210  269.927  271.167  271.165  270.430  270.871  269.711  270.514  270.248  269.060  270.546  269.322  268.878  269.607  270.446  269.394  270.848  271.212  268.228  271.089  269.776  270.263  270.504  268.686  270.544  271.145  269.828  272.863  272.006  271.335  270.474  269.091  271.595  271.015  272.284  269.836  271.441  269.339  272.151  271.946  271.426  271.334  270.557  270.030  270.813  271.255  272.327  272.171  270.701  271.923  271.627  271.149  271.454  270.403  271.423  273.451  271.392  272.101  272.433  272.007  270.716  271.291  270.396  271.365  272.692  271.385  271.509  272.068  271.814  272.461  271.999  270.548  272.622  272.230  273.167  270.359  271.310  271.674  270.635  272.053  272.931  272.007  272.811  272.829  271.356  271.968  271.591  272.232  271.748  272.811  270.851  272.099  273.505  270.781  272.429  270.655  272.052  272.447  271.123 
DATE 2017:067:01:43:38 obsn 575 az 329 el 24 freq_MHz  1422.8800 Tsys 231.636 Tant 40.120 vlsr    1.61 glat  0.058 glon 112.617 source G112.5 
Fstart 1421.877 fstop 1423.883 spacing 0.009375 bw    2.400 fbw    2.000 MHz nfreq 256 nsam 5242880 npoint 214 integ    10 sigma    0.763 bsw 0
Spectrum      9 integration periods
 267.251  267.147  268.977  268.684  268.107  268.839  267.305  268.752  267.404  266.751  267.130  268.936  268.574  267.885  268.324  268.867  269.259  270.059  267.852  269.716  269.402  269.220  269.044  268.712  268.638  269.106  269.387  268.887  270.273  269.231  268.588  269.928  269.696  271.234  268.374  269.147  267.863  270.192  268.826  268.667  269.606  269.078  268.825  270.172  268.808  269.893  267.703  269.645  268.614  268.405  268.470  268.802  270.132  268.580  269.181  269.666  269.432  268.780  268.089  268.381  268.648  269.712  270.246  269.898  268.582  268.317  270.026  270.302  269.264  268.567  270.828  269.383  268.658  269.808  269.115  268.351  269.235  269.287  271.248  267.585  269.005  269.479  268.780  269.981  268.630  269.224  269.316  268.532  270.042  270.686  270.711  269.891  269.507  270.188  270.391  270.208  268.381  268.887  270.407  271.798  269.074  270.304  270.621  269.576  268.951  269.716  271.009  269.782  271.365  270.995  270.915  269.434  270.673  271.250  271.143  271.391  271.073  272.789  269.714  269.693  271.424  269.931  271.608  270.792  271.400  270.521  270.936  271.793  270.069  270.284  269.653  271.320  270.357  270.882  271.384  270.422  270.720  269.189  270.992  270.889  270.358  271.474  272.439  271.322  273.296  271.173  272.857  271.643  271.480  269.883  272.705  271.155  271.735  271.037  270.077  271.564  271.038  271.741  271.338  272.108  272.022  271.069  271.595  271.076  271.254  271.357  271.064  271.501  273.421  272.169  272.524  271.699  270.809  271.421  271.984  272.026  272.439  272.411  271.745  273.705  272.536  274.205  273.701  272.021  271.040  273.524  270.951  271.361  273.587  273.238  270.577  273.031  272.017  272.726  272.135  272.628  272.116  271.279  272.332  270.010  273.073  271.858  274.692  273.412  273.539  272.254  272.142  272.866  272.214  271.990  272.181  273.784  273.029  272.650 
DATE 2017:067:01:44:00 obsn 576 az 329 el 27 freq_MHz  1422.8800 Tsys 231.636 Tant 40.641 vlsr    3.44 glat  0.066 glon 115.117 source G115.0 
Fstart 1421.877 fstop 1423.883 spacing 0.009375 bw    2.400 fbw    2.000 MHz nfreq 256 nsam 5242880 npoint 214 integ    10 sigma    0.763 bsw 0
Spectrum      9 integration periods
 266.433  267.298  270.798  269.192  270.003  269.422  268.863  269.656  270.175  270.110  268.544  268.883  267.919  269.292  270.599  269.227  269.806  269.112  269.694  269.548  268.548  270.642  269.276  270.646  268.927  269.904  269.429  270.012  270.876  269.655  269.664  269.516  270.557  268.072  269.366  269.433  269.273  270.037  269.132  269.071  269.397  270.279  268.950  270.347  268.270  269.625  269.243  270.152  269.446  269.269  268.366  269.860  269.364  269.645  269.550  270.512  270.465  270.223  269.836  269.204  269.382  270.069  271.952  269.845  271.595  270.810  270.108  270.099  271.684  271.676  271.715  271.645  270.418  269.466  270.087  268.134  269.880  269.606  270.491  269.918  270.118  271.329  270.190  269.672  269.881  269.949  270.793  269.877  269.909  269.544  271.796  271.298  271.536  270.367  270.130  272.436  270.888  269.882  270.649  272.704  272.117  271.228  272.823  271.224  272.501  271.361  272.650  272.784  270.632  271.737  271.130  273.139  271.847  270.857  271.921  271.889  271.928  272.054  272.215  273.138  271.632  272.680  271.729  271.612  272.291  272.062  269.848  271.677  271.701  271.814  271.333  271.779  271.822  270.144  272.203  272.543  271.407  271.586  271.588  273.637  272.467  273.165  271.106  270.872  270.747  272.034  273.674  272.796  272.833  273.651  271.923  272.426  273.166  272.827  272.184  275.087  273.335  273.060  271.828  272.463  273.304  273.115  271.007  271.833  272.607  273.627  272.730  272.279  272.439  270.935  271.141  273.108  274.115  272.947  271.656  275.142  273.782  274.795  272.394  273.509  273.847  273.357  275.300  274.159  273.458  276.441  274.446  270.976  271.183  273.212  272.861  272.329  274.312  274.363  274.663  275.311  272.098  274.619  274.011  273.398  272.412  273.857  274.698  273.528  272.831  272.160  272.090  272.012  273.052  272.478  274.376  274.134  274.347  274.350 
DATE 2017:067:01:44:21 obsn 577 az 328 el 29 freq_MHz  1422.8800 Tsys 231.636 Tant 39.490 vlsr    5.28 glat  0.075 glon 117.617 source G117.5 
Fstart 1421.877 fstop 1423.883 spacing 0.009375 bw    2.400 fbw    2.000 MHz nfreq 256 nsam 5242880 npoint 214 integ    11 sigma    0.724 bsw 0
Spectrum     10 integration periods
 264.802  266.116  267.317  267.884  267.417  267.594  267.354  267.874  267.577  267.700  266.603  266.035  267.527  267.226  268.636  267.260  268.147  266.331  268.730  268.229  269.500  269.693  269.694  268.806  268.946  268.737  267.825  267.417  268.692  268.830  268.858  268.383  266.325  268.739  266.862  267.566  268.344  266.216  268.259  267.428  267.211  268.446  268.526  267.888  267.211  268.511  267.735  268.176  269.236  267.158  266.905  268.173  268.017  267.546  268.086  269.486  269.536  268.453  268.437  269.855  269.842  268.810  269.223  269.571  269.014  269.599  269.059  267.559  267.597  268.624  267.342  269.882  268.325  268.360  268.477  267.519  266.830  268.304  268.698  268.791  269.777  269.456  268.686  268.130  267.762  268.801  270.447  269.667  269.984  270.381  269.467  270.145  269.291  270.255  270.086  270.576  270.621  270.434  270.392  269.534  271.837  270.259  270.668  269.921  270.443  269.285  270.593  271.371  270.439  272.161  271.219  272.172  270.285  270.063  269.759  271.170  271.524  270.508  271.540  271.135  270.529  271.104  271.992  271.091  271.617  272.118  271.879  269.267  271.615  270.914  271.120  271.616  271.323  271.229  271.922  271.823  269.641  271.791  270.252  272.329  273.022  270.508  272.513  271.202  272.536  270.964  271.354  273.180  269.743  271.764  271.149  272.125  271.623  272.776  270.466  272.917  272.880  271.022  271.692  272.146  271.391  272.723  273.019  271.076  271.399  270.978  273.307  271.394  272.902  272.071  271.684  272.431  272.364  271.829  271.903  271.695  271.971  272.898  272.514  273.307  273.462  273.986  273.145  272.712  273.187  273.879  273.818  274.004  274.079  274.198  272.984  274.222  272.438  271.561  272.606  273.237  273.760  273.394  273.798  273.225  273.287  274.904  272.609  272.404  271.882  271.543  272.834  274.299  273.343  274.581  273.993  274.251  272.114  272.099 
DATE 2017:067:01:44:50 obsn 578 az 327 el 34 freq_MHz  1422.8800 Tsys 231.636 Tant 39.314 vlsr    8.90 glat  0.091 glon 122.617 source G122.5 
Fstart 1421.877 fstop 1423.883 spacing 0.009375 bw    2.400 fbw    2.000 MHz nfreq 256 nsam 5242880 npoint 214 integ     1 sigma    2.289 bsw 0
Spectrum      1 integration periods
