DATE 2017:067:16:56:08 obsn   0 az 190 el 25 freq_MHz  1420.4000 Tsys 213.599 Tant 41.319 vlsr  -24.86 glat -37.545 glon 15.799 source at_stow
Fstart 1419.397 fstop 1421.403 spacing 0.009375 bw    2.400 fbw    2.000 MHz nfreq 256 nsam 5242880 npoint 214 integ    54 sigma    0.302 bsw 0
Spectrum     49 integration periods
 301.674  300.562  299.990  303.183  300.027  299.064  299.899  303.661  299.812  300.113  299.574  299.466  300.026  299.548  299.181  303.209  302.631  299.125  299.458  298.760  300.015  298.323  299.691  299.756  300.459  299.536  299.067  300.014  304.662  299.913  298.750  299.408  300.394  300.093  298.797  299.145  298.804  300.429  298.767  298.983  300.938  303.375  299.210  298.873  299.219  298.662  298.565  299.137  299.123  298.749  303.450  299.872  299.653  299.800  302.295  298.446  303.749  298.567  299.842  298.778  299.025  299.398  302.823  302.439  299.470  299.113  299.870  300.422  304.353  300.057  304.025  305.482  299.668  299.260  298.882  303.977  298.584  298.297  299.162  298.946  299.011  299.114  298.941  299.189  303.369  299.360  299.077  299.622  301.210  299.293  299.246  299.571  300.005  299.644  299.103  299.428  304.504  300.142  299.139  299.940  298.621  299.530  299.371  302.146  300.090  302.433  298.804  299.236  299.328  301.733  299.117  299.266  299.030  299.811  298.819  299.345  301.795  299.868  306.327  302.302  303.552  304.951  308.042  309.841  311.973  311.415  311.993  307.824  306.080  305.036  305.581  304.349  300.226  301.083  303.972  299.392  299.065  299.391  298.007  303.520  298.573  298.184  298.467  300.334  298.547  298.311  297.995  300.314  300.693  298.939  298.503  297.735  303.096  299.696  298.326  299.216  298.816  298.474  299.399  298.478  303.915  298.680  298.942  299.717  299.032  300.168  297.666  298.384  298.498  300.368  298.486  299.075  299.235  303.284  297.809  297.983  298.480  298.744  297.314  297.607  297.498  299.648  302.567  298.087  297.954  298.152  299.813  297.015  298.133  297.703  300.072  297.688  298.137  297.642  302.883  298.654  299.843  298.436  297.278  298.728  298.411  299.100  298.276  304.016  298.453  298.653  299.184  299.365  297.674  297.817  297.864  300.285  298.593  303.217 
DATE 2017:067:16:57:01 obsn   1 az 230 el 16 freq_MHz  1420.4000 Tsys 213.599 Tant 28.072 vlsr  -41.60 glat -0.205 glon 10.118 source G10.0 
Fstart 1419.397 fstop 1421.403 spacing 0.009375 bw    2.400 fbw    2.000 MHz nfreq 256 nsam 5242880 npoint 214 integ    11 sigma    0.667 bsw 0
Spectrum     10 integration periods
 236.183  234.061  235.952  236.064  234.921  233.524  233.797  233.754  233.738  233.485  233.968  232.777  234.134  233.482  232.839  235.004  234.495  234.056  233.157  234.001  234.426  233.727  234.177  234.044  234.622  233.819  233.152  233.802  235.367  234.195  234.890  233.018  233.867  233.626  231.777  233.903  233.908  234.958  233.627  233.475  233.071  234.904  232.948  234.017  233.138  234.254  234.132  234.920  233.354  234.578  234.777  234.005  234.172  233.826  235.354  234.067  234.840  235.386  236.051  235.464  235.677  234.856  236.131  237.784  234.996  235.737  235.088  236.423  236.972  235.945  234.364  238.206  234.974  235.661  235.782  238.692  235.147  235.109  237.175  234.977  234.251  234.594  235.728  235.215  237.396  234.656  236.093  237.290  236.810  236.519  236.422  236.936  237.899  237.268  236.825  237.880  239.034  238.988  238.164  239.164  241.495  240.031  241.634  245.307  245.494  248.856  249.470  251.959  251.972  256.075  255.045  257.276  260.511  261.042  264.019  266.876  270.519  272.011  277.470  278.702  281.480  286.181  290.546  293.478  293.718  297.537  299.292  298.780  296.400  295.773  293.606  293.264  293.473  290.730  282.055  271.317  265.561  262.486  261.707  264.706  261.089  261.040  260.353  259.546  257.840  254.837  250.437  248.575  245.695  242.174  240.794  238.089  239.077  241.538  234.801  234.103  233.628  233.108  233.143  232.959  234.990  232.079  233.097  232.637  232.810  232.393  232.037  232.987  231.477  232.939  232.103  232.963  232.965  233.814  231.979  232.476  232.398  230.077  232.368  231.652  232.006  231.503  233.005  232.136  231.238  232.498  232.224  231.865  230.880  231.731  232.031  230.789  230.503  231.741  233.819  232.427  232.579  232.051  231.234  230.744  232.143  234.362  232.622  233.968  232.621  231.886  232.450  232.678  231.793  231.494  232.577  232.827  230.914  233.656 
DATE 2017:067:16:57:22 obsn   2 az 230 el 19 freq_MHz  1420.4000 Tsys 213.599 Tant 27.071 vlsr  -41.90 glat -0.205 glon 12.618 source G12.5 
Fstart 1419.397 fstop 1421.403 spacing 0.009375 bw    2.400 fbw    2.000 MHz nfreq 256 nsam 5242880 npoint 214 integ    10 sigma    0.704 bsw 0
Spectrum      9 integration periods
 234.367  232.234  229.707  232.145  230.827  231.471  228.296  230.017  231.613  231.406  230.617  229.157  230.778  230.359  231.014  230.182  230.888  229.704  230.694  230.711  229.567  230.495  231.038  229.846  230.722  230.349  231.347  230.235  231.273  229.976  229.680  229.006  231.028  230.638  230.484  230.226  230.366  229.225  231.137  228.445  229.570  230.770  229.786  229.203  231.331  230.650  229.635  230.462  229.955  231.707  231.319  231.042  231.043  228.918  231.760  231.145  231.956  229.893  230.287  231.678  231.847  232.052  232.156  232.725  231.216  233.581  232.363  232.925  238.714  237.215  234.768  236.249  233.953  235.161  234.005  236.076  233.767  235.469  234.642  234.099  234.663  234.957  234.187  234.928  235.680  236.514  235.851  235.881  236.900  235.668  236.069  235.115  236.230  237.376  237.082  237.022  238.226  238.866  239.194  242.035  241.680  245.823  247.270  247.557  249.336  252.698  252.565  252.193  255.835  257.174  258.793  259.555  261.150  262.105  263.228  264.963  269.326  270.970  274.204  277.444  282.359  286.550  289.297  291.414  294.754  294.500  295.319  292.654  292.605  291.404  291.069  291.045  294.414  289.416  282.237  269.348  262.906  258.750  255.491  256.164  254.576  252.015  252.081  253.006  253.031  252.944  253.830  249.502  247.028  245.060  241.835  239.553  240.321  237.942  233.809  232.243  231.866  230.257  231.092  230.387  233.032  229.900  230.197  229.033  231.018  229.840  228.457  229.000  228.980  230.163  230.476  230.290  229.167  230.009  228.215  228.255  229.275  228.331  227.168  227.729  228.544  228.054  228.891  228.497  228.406  228.324  228.268  228.712  228.596  230.141  229.478  227.932  226.681  226.888  229.309  228.165  228.485  227.695  229.982  228.925  226.747  230.203  228.875  230.555  228.866  230.057  229.178  227.999  228.127  228.854  228.698  229.112  228.466  232.294 
DATE 2017:067:16:57:43 obsn   3 az 231 el 21 freq_MHz  1420.4000 Tsys 213.599 Tant 26.781 vlsr  -42.11 glat -0.203 glon 15.118 source G15.0 
Fstart 1419.397 fstop 1421.403 spacing 0.009375 bw    2.400 fbw    2.000 MHz nfreq 256 nsam 5242880 npoint 214 integ    10 sigma    0.704 bsw 0
Spectrum      9 integration periods
 232.539  231.458  231.561  232.405  230.010  230.529  229.976  232.230  229.965  230.586  231.321  229.410  229.486  229.348  230.691  231.229  231.846  229.907  228.125  228.818  229.693  230.581  230.161  230.309  231.014  229.465  230.993  229.009  233.616  229.153  229.238  230.085  229.324  230.158  229.406  230.575  228.706  231.089  230.023  230.342  230.620  230.861  229.687  229.400  229.788  229.368  229.966  228.931  229.417  229.402  231.782  228.973  229.085  229.257  230.895  231.726  230.291  230.222  231.090  230.514  230.492  231.482  234.168  231.002  231.270  230.955  232.838  233.797  237.526  236.122  243.157  238.320  236.099  236.966  236.874  238.761  236.918  237.257  236.639  236.341  236.147  236.443  235.393  235.009  238.919  237.385  238.222  236.205  239.601  238.807  238.392  239.215  238.833  238.774  240.651  240.923  245.633  244.085  243.709  245.002  246.793  248.614  247.426  250.309  250.715  255.915  253.483  255.737  256.588  257.802  258.855  259.488  259.936  262.124  263.681  263.351  265.800  268.348  274.624  274.211  278.436  282.343  286.584  290.624  292.533  293.943  295.668  290.529  289.770  288.397  289.728  288.769  290.685  290.778  283.715  270.092  261.886  256.308  254.340  254.697  251.649  250.555  250.569  251.409  251.110  251.112  252.567  251.460  251.250  248.245  245.178  243.355  242.395  238.785  232.605  232.717  231.985  230.821  229.664  230.295  231.877  228.635  228.216  228.367  227.759  229.977  228.232  229.140  227.911  229.593  226.810  227.777  226.899  229.977  227.578  227.130  228.704  227.728  226.054  226.830  226.865  227.649  229.902  226.773  226.787  225.959  227.052  225.573  226.186  226.656  228.073  227.107  226.965  227.577  229.719  228.182  226.792  227.522  227.341  227.712  227.646  227.539  227.284  231.133  226.845  227.449  228.232  227.438  227.072  226.879  225.882  228.475  227.253  228.907 
DATE 2017:067:16:58:05 obsn   4 az 232 el 23 freq_MHz  1420.4000 Tsys 213.599 Tant 26.916 vlsr  -42.25 glat -0.202 glon 17.618 source G17.5 
Fstart 1419.397 fstop 1421.403 spacing 0.009375 bw    2.400 fbw    2.000 MHz nfreq 256 nsam 5242880 npoint 214 integ    10 sigma    0.704 bsw 0
Spectrum      9 integration periods
 230.325  229.257  229.314  231.150  227.800  228.186  227.893  232.020  227.459  228.953  230.767  229.094  228.070  227.637  228.508  232.381  231.767  229.136  227.865  226.416  230.383  229.003  229.221  229.027  228.787  227.640  228.464  227.582  232.941  229.198  227.891  227.962  229.309  227.912  227.736  228.800  227.288  229.772  228.654  227.112  227.495  232.133  227.964  228.258  227.219  229.225  228.363  226.743  228.340  227.655  230.832  226.559  227.120  228.059  229.213  228.746  228.748  228.418  229.143  229.620  227.393  228.066  233.048  230.464  229.555  230.520  229.155  231.423  233.177  233.422  234.871  237.938  234.950  236.601  237.108  242.757  238.306  239.086  240.849  240.350  239.014  240.647  240.546  240.235  243.918  241.581  241.761  242.608  243.722  243.695  241.468  241.302  242.405  243.807  243.195  245.167  249.225  244.445  246.460  247.326  246.748  248.478  248.983  249.809  251.372  254.171  253.659  256.177  256.903  260.807  258.416  258.405  260.801  262.065  263.040  263.607  264.236  266.470  272.800  270.981  274.211  276.562  281.834  285.788  288.558  289.112  288.586  285.589  284.741  284.478  284.725  288.940  287.933  291.991  283.975  271.613  259.139  253.127  250.201  251.704  248.495  245.174  245.382  248.129  246.161  245.869  246.600  248.670  247.755  246.445  245.241  244.434  245.270  238.996  235.481  234.070  231.226  230.141  229.195  229.602  231.950  227.219  227.652  226.717  226.248  228.086  228.090  227.277  227.258  228.580  226.865  225.906  225.892  229.498  225.700  227.453  226.950  225.350  224.709  226.108  225.671  227.229  228.485  227.387  225.937  224.917  226.569  225.658  225.424  225.438  226.525  224.567  226.205  227.265  228.995  226.735  225.947  226.837  226.410  225.472  226.388  227.126  226.738  229.578  225.547  227.888  226.271  226.204  225.769  226.891  225.481  227.345  225.684  224.841 
DATE 2017:067:16:58:26 obsn   5 az 232 el 26 freq_MHz  1420.4000 Tsys 213.599 Tant 25.876 vlsr  -42.31 glat -0.200 glon 20.118 source G20.0 
Fstart 1419.397 fstop 1421.403 spacing 0.009375 bw    2.400 fbw    2.000 MHz nfreq 256 nsam 5242880 npoint 214 integ    11 sigma    0.667 bsw 0
Spectrum     10 integration periods
 229.458  229.441  228.897  229.939  228.650  226.777  227.641  229.929  226.792  228.770  228.402  226.195  226.691  225.804  228.234  229.704  229.192  226.959  226.752  228.165  229.194  226.538  227.290  227.913  228.087  228.043  227.373  227.593  231.213  226.799  226.852  228.325  227.178  228.113  227.479  227.794  227.532  228.149  227.436  226.141  227.549  229.684  226.414  228.165  227.590  227.652  226.525  227.615  226.519  226.766  229.224  226.885  227.272  226.046  228.327  227.906  227.435  226.996  227.591  228.118  227.564  227.786  230.887  227.647  227.246  228.157  228.998  229.260  230.919  229.811  234.272  235.467  233.396  235.391  235.199  239.965  240.283  243.353  241.276  243.724  245.943  246.978  248.438  247.321  250.779  249.508  248.779  249.963  250.313  249.762  248.770  247.521  249.193  247.081  248.155  247.299  249.959  248.426  249.422  249.082  250.695  253.176  252.984  255.730  256.712  259.989  258.210  259.128  260.177  262.357  261.897  260.286  261.163  260.761  260.785  263.016  260.342  259.245  263.883  261.351  262.149  263.835  267.403  271.328  275.758  276.853  279.089  277.028  277.499  276.181  279.025  282.198  285.766  285.876  277.850  263.510  253.682  248.788  244.745  246.797  243.757  242.904  241.736  240.030  241.010  241.114  240.051  242.870  243.756  244.344  244.401  245.226  245.893  240.504  238.038  236.330  234.421  231.441  230.614  229.387  230.679  227.627  228.031  226.744  227.304  226.495  225.299  226.273  226.330  226.153  225.741  226.140  225.555  228.480  227.117  226.807  226.926  225.255  225.258  224.280  224.939  225.913  229.110  226.146  225.959  224.605  225.586  225.227  224.491  224.935  225.868  224.937  225.169  224.400  227.308  224.958  226.318  225.318  226.005  226.346  225.248  225.596  226.257  228.209  226.279  226.186  225.415  226.471  224.636  225.088  224.767  226.234  224.876  225.450 
DATE 2017:067:16:58:55 obsn   6 az 234 el 31 freq_MHz  1420.4000 Tsys 213.599 Tant 27.057 vlsr  -42.18 glat -0.195 glon 25.118 source G25.0 
Fstart 1419.397 fstop 1421.403 spacing 0.009375 bw    2.400 fbw    2.000 MHz nfreq 256 nsam 5242880 npoint 214 integ     1 sigma    2.111 bsw 0
Spectrum      1 integration periods
 227.388  227.033  226.747  233.241  226.600  227.330  229.109  229.550  227.464  228.008  232.227  230.693  225.145  228.523  228.952  234.278  231.374  230.438  227.701  229.635  225.654  229.216  227.064  226.260  229.446  230.238  227.154  226.210  228.311  229.054  227.262  230.519  230.353  230.530  224.698  229.141  230.070  231.094  224.890  227.616  225.044  223.842  226.928  231.816  229.205  227.339  227.695  228.509  229.938  229.337  229.672  230.729  228.121  228.659  224.858  228.419  229.517  228.748  227.807  229.648  228.460  226.747  227.565  226.207  228.474  229.206  228.778  226.637  233.557  233.004  225.226  228.672  229.940  230.350  233.492  239.288  235.538  238.829  241.214  239.123  249.012  252.462  249.015  255.692  253.415  257.984  252.890  253.237  255.258  259.727  256.289  256.899  256.578  262.910  256.211  259.605  260.644  257.550  255.583  256.383  256.099  253.899  257.240  256.959  254.660  254.676  252.695  258.554  254.350  256.873  256.711  261.022  262.223  263.872  262.588  258.977  258.688  262.363  264.617  269.040  269.835  273.094  275.689  277.264  282.466  280.596  284.488  281.476  282.154  274.559  275.136  284.710  286.052  280.386  276.801  258.912  243.113  239.292  241.921  244.794  243.391  244.659  244.634  241.949  240.151  239.303  240.964  242.073  245.700  240.506  243.631  249.097  243.345  246.046  245.128  238.884  244.249  237.990  233.895  235.567  234.703  233.167  231.931  229.430  227.911  230.098  228.432  228.379  231.697  229.654  230.075  225.528  230.503  228.538  229.464  224.712  221.903  225.205  226.019  225.721  225.583  229.155  229.220  225.451  229.353  226.093  226.967  225.912  225.241  224.910  226.496  227.706  227.134  227.700  226.135  227.832  226.100  224.562  226.324  228.377  228.852  224.115  230.415  228.826  229.760  230.143  224.561  225.280  227.624  226.606  227.143  225.286  222.309  226.476 
DATE 2017:067:16:59:16 obsn   7 az 235 el 33 freq_MHz  1420.4000 Tsys 213.599 Tant 28.384 vlsr  -41.99 glat -0.192 glon 27.618 source G27.5 
Fstart 1419.397 fstop 1421.403 spacing 0.009375 bw    2.400 fbw    2.000 MHz nfreq 256 nsam 5242880 npoint 214 integ     1 sigma    2.111 bsw 0
Spectrum      1 integration periods
 231.038  231.300  229.845  229.809  227.592  227.958  230.577  227.520  227.170  223.693  231.808  230.701  230.544  230.149  230.959  231.039  226.922  228.753  228.249  227.622  229.312  231.160  229.406  228.926  229.578  229.832  225.999  229.059  226.861  225.199  225.160  227.301  231.458  230.996  230.981  229.040  229.410  232.203  226.219  222.370  224.057  231.489  229.395  227.728  228.932  226.324  229.791  228.686  225.114  225.948  228.291  223.803  229.446  226.725  227.097  227.314  229.796  229.320  226.700  226.375  230.124  227.987  230.249  226.953  228.126  230.509  228.672  229.626  232.517  235.830  235.009  230.215  230.918  231.622  229.372  230.960  237.050  237.296  245.055  240.776  247.031  248.741  251.534  249.608  261.195  257.067  259.833  261.272  257.989  261.312  254.802  257.715  260.905  260.979  263.995  262.628  261.773  260.262  260.705  259.393  257.070  254.346  255.242  255.704  256.236  262.541  260.132  262.043  259.877  265.625  267.268  265.953  266.051  264.698  268.342  260.660  263.347  262.494  268.092  268.672  272.755  276.190  282.387  282.556  288.170  291.782  292.224  289.058  289.412  283.617  277.063  282.374  281.856  281.191  271.464  255.128  244.997  244.884  241.624  242.883  241.020  242.716  243.006  244.954  241.375  245.717  244.172  244.495  242.089  246.642  246.129  247.870  250.106  248.663  250.324  251.038  247.368  241.605  238.128  234.665  234.855  236.470  233.333  235.504  231.225  232.124  224.815  227.929  228.362  227.503  227.071  225.581  225.984  231.372  230.250  229.520  228.451  227.198  225.071  228.032  224.466  224.829  228.383  227.325  227.971  231.029  227.545  226.447  225.132  229.280  228.732  229.616  222.915  225.232  227.253  227.944  226.740  226.352  232.576  225.184  227.946  226.235  229.962  231.300  225.188  226.824  230.875  228.918  227.615  226.058  228.622  225.470  226.485  230.366 
DATE 2017:067:16:59:37 obsn   8 az 235 el 35 freq_MHz  1420.4000 Tsys 213.599 Tant 24.526 vlsr  -41.73 glat -0.188 glon 30.118 source G30.0 
Fstart 1419.397 fstop 1421.403 spacing 0.009375 bw    2.400 fbw    2.000 MHz nfreq 256 nsam 5242880 npoint 214 integ     2 sigma    1.493 bsw 0
Spectrum      2 integration periods
