* entered azoff 0.000000 eloff 0.000000
DATE 2017:094:10:28:23 obsn  60 az 174 el 17 freq_MHz  1420.4000 Tsys 145.521 Tant 40.812 vlsr  -34.71 glat -0.198 glon 350.117 azoff 0.00 eloff 0.00 source G350.0 
Fstart 1419.397 fstop 1421.403 spacing 0.009375 bw    2.400 fbw    2.000 MHz nfreq 256 nsam 5242880 npoint 214 integ     7 sigma    0.587 bsw 0
Spectrum      6 integration periods
 175.343  176.914  175.543  177.241  174.370  175.330  175.104  176.405  173.796  174.893  175.198  174.508  175.414  176.007  174.678  177.220  178.299  173.979  174.884  175.606  176.868  175.312  177.104  174.763  176.070  174.844  175.053  175.287  179.547  175.633  174.471  173.441  175.068  175.548  173.735  173.682  173.578  175.563  173.348  174.459  175.282  178.780  173.100  172.530  173.962  175.431  174.130  174.777  174.391  173.888  178.180  173.816  174.888  173.099  175.611  174.187  177.984  174.566  175.379  174.468  174.865  174.333  179.982  178.139  173.529  173.430  173.802  175.110  176.341  175.755  191.191  181.960  173.780  175.424  174.349  177.634  174.375  175.250  173.260  174.413  175.132  173.869  174.375  175.999  177.754  173.871  175.429  175.249  176.334  175.772  175.092  175.043  175.900  174.559  174.345  175.919  179.783  175.150  175.523  175.367  175.903  174.850  175.183  178.766  176.440  179.970  176.118  176.774  178.873  181.349  179.321  179.671  179.155  182.423  182.023  182.377  182.778  183.045  187.997  184.928  185.985  188.596  191.758  193.706  198.600  202.716  209.391  211.691  216.324  217.912  222.185  221.414  215.622  215.282  216.137  211.597  208.750  206.388  205.373  207.389  201.055  199.150  199.907  196.785  195.915  194.403  190.578  190.340  190.123  187.209  185.617  183.214  186.215  182.014  181.440  182.933  181.382  180.274  180.916  180.460  185.217  179.366  178.931  180.775  179.352  180.216  178.633  178.057  177.526  179.429  177.292  176.523  177.693  181.946  177.284  177.046  178.258  176.113  176.444  177.721  176.946  178.032  181.651  178.778  177.500  178.730  178.624  177.161  177.689  175.980  178.592  176.322  175.391  175.559  180.229  176.757  175.846  175.953  173.843  175.473  174.095  175.431  174.966  178.221  175.849  174.322  174.548  175.300  174.103  175.553  174.535  177.580  175.487  174.478 
DATE 2017:094:10:28:36 obsn  61 az 174 el 17 freq_MHz  1420.4000 Tsys 145.521 Tant 39.419 vlsr  -34.71 glat -0.198 glon 350.117 azoff 0.00 eloff 0.00 source G350.0 
Fstart 1419.397 fstop 1421.403 spacing 0.009375 bw    2.400 fbw    2.000 MHz nfreq 256 nsam 5242880 npoint 214 integ    17 sigma    0.360 bsw 0
Spectrum     16 integration periods
 177.530  178.228  177.739  180.366  177.853  178.141  177.028  180.039  176.593  176.790  176.974  176.877  177.230  177.636  177.434  180.127  180.984  176.197  176.865  177.277  178.696  177.439  178.669  176.999  178.383  177.739  177.348  177.308  182.364  177.757  177.170  176.702  177.388  177.285  176.392  175.807  176.049  178.619  176.354  175.954  177.195  180.349  175.580  175.716  176.367  176.477  176.277  177.133  176.973  176.751  180.928  175.996  177.008  175.926  178.508  176.462  178.231  176.378  177.072  176.735  176.920  176.339  181.614  181.787  177.137  175.963  176.797  177.315  177.873  178.251  192.416  185.446  176.491  177.380  176.588  180.158  176.440  176.757  176.085  176.215  176.716  176.086  176.137  177.800  180.124  176.370  176.703  176.876  178.961  177.643  177.220  176.838  178.258  176.589  177.054  177.094  181.759  177.189  176.880  177.425  177.882  177.620  177.058  180.127  178.588  182.632  178.656  179.710  181.132  184.190  181.745  182.406  182.446  184.858  184.455  184.552  185.183  186.359  191.282  187.659  188.980  192.436  195.705  198.457  203.419  208.515  215.071  218.872  224.385  227.083  230.201  229.578  224.401  221.102  221.173  217.449  215.278  212.922  210.967  213.003  206.638  205.081  203.711  203.301  200.699  198.828  196.789  195.008  194.861  191.018  188.780  187.120  190.529  184.772  184.399  185.826  184.349  183.706  183.402  183.862  188.111  182.068  181.888  182.669  181.754  182.659  181.449  180.036  180.151  181.952  180.159  180.004  180.635  185.255  180.727  180.770  180.763  179.790  180.045  179.881  179.662  179.829  184.524  180.299  179.895  180.821  181.790  179.802  179.968  178.991  181.444  178.448  178.395  177.508  181.678  178.324  178.243  177.383  176.343  177.853  176.534  177.097  177.117  180.725  177.313  176.439  176.117  177.403  177.268  177.144  177.147  179.656  177.889  176.476 
* entered azoff 0.000000 eloff 0.000000
DATE 2017:094:10:28:57 obsn  62 az 172 el 19 freq_MHz  1420.4000 Tsys 145.521 Tant 35.429 vlsr  -35.90 glat -0.200 glon 352.617 azoff 0.00 eloff 0.00 source G352.5 
Fstart 1419.397 fstop 1421.403 spacing 0.009375 bw    2.400 fbw    2.000 MHz nfreq 256 nsam 5242880 npoint 214 integ     8 sigma    0.544 bsw 0
Spectrum      7 integration periods
 173.267  173.523  173.239  176.652  173.342  172.716  172.622  176.741  172.832  172.936  173.986  173.074  171.567  171.861  172.403  174.785  176.452  172.339  172.039  172.797  174.055  172.493  174.527  172.626  173.381  172.752  171.181  172.308  179.078  173.473  172.299  173.026  171.575  172.404  172.154  172.161  171.528  174.715  172.930  170.797  171.652  176.950  171.612  171.537  171.767  171.686  171.599  171.150  172.032  171.865  176.625  171.296  171.952  172.764  173.725  172.777  171.900  171.815  172.786  171.451  171.447  171.548  176.744  171.117  172.438  170.834  172.151  172.684  173.908  175.651  177.700  183.686  173.415  173.069  171.322  176.006  171.982  171.650  171.751  171.427  172.239  172.055  172.697  172.230  177.060  171.559  172.071  172.225  174.008  171.828  173.192  172.995  173.111  172.727  172.734  172.864  176.651  171.442  172.295  173.071  173.360  173.313  172.359  173.669  172.608  177.689  175.550  175.132  174.442  179.534  177.440  177.129  179.185  180.585  181.140  180.903  180.845  183.571  188.841  184.520  187.623  190.178  194.024  195.684  202.598  208.019  217.803  221.862  228.555  233.443  236.491  236.354  231.987  229.189  226.722  225.721  221.227  217.532  213.653  214.401  206.834  206.691  202.581  202.726  199.883  197.016  195.173  194.755  193.493  188.472  185.714  184.207  184.976  181.216  181.163  181.109  180.740  178.892  177.849  179.436  182.530  176.763  176.866  176.916  177.192  178.367  176.775  175.809  176.391  178.350  178.488  177.700  177.250  181.450  177.902  177.864  178.950  177.449  177.724  176.095  176.486  175.113  181.965  174.849  176.281  175.381  175.893  175.022  174.874  175.157  175.075  173.162  172.138  173.821  175.831  173.561  172.154  171.822  172.609  172.475  172.380  171.650  171.340  176.703  172.332  173.174  173.674  173.494  172.022  172.724  172.227  175.782  172.436  173.365 
DATE 2017:094:10:29:11 obsn  63 az 172 el 19 freq_MHz  1420.4000 Tsys 145.521 Tant 35.443 vlsr  -35.90 glat -0.200 glon 352.617 azoff 0.00 eloff 0.00 source G352.5 
Fstart 1419.397 fstop 1421.403 spacing 0.009375 bw    2.400 fbw    2.000 MHz nfreq 256 nsam 5242880 npoint 214 integ    19 sigma    0.349 bsw 0
Spectrum     17 integration periods
 174.038  173.996  173.330  177.148  173.011  173.128  173.040  176.469  172.846  172.387  173.066  173.154  171.871  172.023  172.655  175.612  176.567  172.161  172.581  173.414  174.234  172.717  174.706  172.747  173.851  172.260  172.190  172.366  178.843  172.513  172.169  172.217  172.144  172.498  172.485  172.124  171.632  175.012  171.958  171.467  171.617  176.720  171.406  171.266  172.016  172.295  171.507  171.154  172.062  171.730  176.574  171.642  171.762  172.203  174.650  172.317  171.783  171.637  173.071  171.980  171.236  171.137  176.830  171.521  172.428  171.489  171.820  172.910  173.295  175.552  182.331  184.009  173.650  172.148  171.486  176.141  171.959  172.139  171.638  171.350  171.879  171.604  172.157  171.910  176.495  171.911  172.263  172.254  173.785  172.218  172.272  172.264  173.231  172.691  172.783  172.786  177.745  172.275  172.331  172.715  173.306  173.392  172.454  173.747  173.417  177.441  174.761  175.119  175.049  179.403  177.279  177.777  178.853  179.943  181.394  180.318  180.932  183.415  188.773  185.418  187.829  190.803  193.893  196.249  202.444  208.331  218.570  221.851  228.775  233.988  236.981  236.143  231.311  228.749  227.496  225.003  221.110  217.618  213.831  215.626  206.884  206.203  202.799  202.489  199.482  197.152  194.936  194.243  193.360  188.459  186.370  184.214  186.550  181.239  180.844  181.357  180.734  179.120  178.531  179.012  182.499  176.917  176.864  177.145  177.033  178.268  176.443  176.132  176.437  178.983  177.670  177.110  177.049  182.360  178.080  178.278  177.912  177.648  177.240  176.572  176.623  175.629  181.855  175.442  175.808  175.394  176.197  174.498  174.876  174.826  175.769  173.461  172.787  173.203  176.524  173.027  172.485  172.375  172.969  172.322  172.671  172.517  172.185  177.236  172.681  172.716  173.492  173.587  172.607  172.554  172.277  175.830  172.819  172.842 
* entered azoff 0.000000 eloff 0.000000
DATE 2017:094:10:29:32 obsn  64 az 170 el 21 freq_MHz  1420.4000 Tsys 145.521 Tant 31.645 vlsr  -37.02 glat -0.202 glon 355.117 azoff 0.00 eloff 0.00 source G355.0 
Fstart 1419.397 fstop 1421.403 spacing 0.009375 bw    2.400 fbw    2.000 MHz nfreq 256 nsam 5242880 npoint 214 integ    10 sigma    0.479 bsw 0
Spectrum      9 integration periods
 170.298  170.427  169.710  175.905  168.500  168.865  169.882  175.707  168.878  168.965  169.152  169.270  168.787  168.944  169.476  175.240  177.399  167.839  169.397  168.610  173.252  169.563  170.278  169.130  170.823  168.406  169.364  168.881  179.127  169.291  169.252  168.434  169.774  169.832  168.936  168.084  168.472  173.976  168.237  169.069  167.860  176.316  168.370  168.698  168.380  169.177  168.927  169.324  168.381  169.135  178.116  169.240  168.727  168.585  173.425  168.422  169.102  169.131  170.132  169.079  168.302  168.939  177.848  169.612  168.354  169.103  168.547  170.470  171.786  173.733  174.980  188.236  169.752  169.881  169.082  176.204  168.820  169.157  169.002  169.842  169.258  169.965  169.615  170.283  178.412  170.364  169.670  171.017  174.007  169.928  170.918  170.715  172.233  169.992  169.319  168.993  179.577  169.830  169.539  170.918  170.214  169.965  170.218  170.054  170.851  178.689  171.150  171.732  172.066  178.752  172.280  173.922  173.795  176.241  175.716  176.592  178.389  180.034  189.733  182.502  186.054  187.614  192.520  195.376  200.861  208.000  220.324  222.179  226.332  231.106  239.869  243.798  233.599  232.230  228.115  223.695  219.481  214.765  210.102  214.445  202.725  199.696  198.040  197.671  192.938  190.515  188.289  186.891  187.984  183.210  182.595  180.250  186.742  177.121  176.382  176.828  176.058  174.107  175.195  173.901  182.687  173.970  174.103  174.439  174.468  176.940  176.788  176.057  177.081  179.932  176.524  176.561  176.292  183.385  177.657  175.252  174.939  174.683  174.294  174.333  173.639  173.382  181.118  170.441  172.277  171.009  172.814  171.993  170.888  171.192  173.612  171.142  169.918  170.590  176.519  170.139  170.159  169.821  169.815  170.664  170.251  171.601  170.882  177.663  170.506  170.026  171.072  172.409  171.032  170.889  169.954  175.037  170.725  170.428 
DATE 2017:094:10:29:53 obsn  65 az 169 el 23 freq_MHz  1420.4000 Tsys 145.521 Tant 32.130 vlsr  -38.07 glat -0.203 glon 357.617 azoff 0.00 eloff 0.00 source G357.5 
Fstart 1419.397 fstop 1421.403 spacing 0.009375 bw    2.400 fbw    2.000 MHz nfreq 256 nsam 5242880 npoint 214 integ     1 sigma    1.438 bsw 0
Spectrum      1 integration periods
 167.956  168.065  167.772  176.905  169.276  168.737  165.699  178.007  167.673  170.694  168.946  165.175  168.210  167.220  168.202  174.877  178.499  164.950  169.033  168.969  172.958  171.197  167.648  165.978  172.420  169.625  167.651  170.869  184.193  168.777  168.790  168.269  167.231  166.335  167.223  166.883  171.786  171.714  166.499  168.130  165.107  179.324  168.136  167.787  168.848  166.800  166.749  165.648  169.386  168.216  179.482  167.395  169.272  168.934  176.181  169.615  169.150  165.898  171.318  168.850  165.881  166.245  183.482  169.927  170.181  165.761  168.908  170.213  170.937  173.629  174.887  188.922  169.689  169.799  170.686  179.396  171.482  168.314  171.080  167.264  167.112  169.411  167.281  171.959  180.050  169.891  172.145  168.336  174.965  170.521  173.331  169.539  170.742  168.479  168.311  166.822  182.125  170.033  168.033  170.028  169.680  172.583  168.802  169.884  166.895  178.781  170.036  171.829  170.899  180.403  172.605  172.514  170.605  172.584  175.181  173.837  178.221  178.246  195.555  185.209  186.686  186.973  195.052  197.811  199.355  211.948  225.002  223.437  226.524  225.956  245.663  248.167  235.872  232.373  225.882  225.092  217.592  207.728  205.205  212.579  202.562  198.532  195.048  193.946  186.002  183.255  187.032  184.860  188.487  179.606  178.986  177.284  187.745  172.717  173.903  173.086  172.587  170.985  173.161  177.352  183.828  173.872  176.998  175.754  174.282  177.923  170.997  177.369  172.868  181.095  172.348  177.246  171.524  186.977  175.894  175.846  172.418  173.144  171.986  171.213  168.574  170.695  183.635  169.434  166.056  171.700  171.453  169.124  171.560  169.729  178.659  168.518  169.541  170.492  178.448  168.972  169.116  168.399  168.856  170.689  170.085  170.206  169.456  182.934  167.445  169.662  168.785  176.611  170.663  172.035  167.901  174.739  170.774  167.940 
* entered azoff 0.000000 eloff 0.000000
DATE 2017:094:10:30:06 obsn  66 az 169 el 23 freq_MHz  1420.4000 Tsys 145.521 Tant 32.720 vlsr  -38.07 glat -0.203 glon 357.617 azoff 0.00 eloff 0.00 source G357.5 
Fstart 1419.397 fstop 1421.403 spacing 0.009375 bw    2.400 fbw    2.000 MHz nfreq 256 nsam 5242880 npoint 214 integ    12 sigma    0.434 bsw 0
Spectrum     11 integration periods
 168.068  168.214  168.122  174.839  169.154  168.286  167.210  173.926  167.929  167.604  167.542  167.753  167.436  166.335  167.362  174.378  175.957  167.339  168.783  168.095  171.849  168.244  167.723  167.453  170.510  168.314  167.522  168.452  177.290  168.823  167.568  168.141  167.449  168.370  168.059  166.940  168.369  171.782  167.965  167.499  167.038  175.175  167.655  167.296  167.071  167.905  168.610  167.705  167.414  169.272  176.307  168.119  167.878  167.526  171.998  168.383  168.433  169.048  170.675  167.898  167.269  167.894  177.467  168.164  167.939  168.038  169.026  170.004  170.710  175.014  177.026  187.727  169.440  169.031  168.771  177.507  168.447  168.417  168.825  169.042  169.254  170.027  170.135  170.471  178.887  169.661  171.107  169.323  173.722  170.512  170.397  169.734  172.004  169.945  169.025  169.947  179.720  169.815  168.760  169.640  169.549  170.708  169.318  170.393  169.937  177.381  171.388  170.788  171.808  177.084  172.151  172.243  172.983  175.146  175.047  175.288  177.057  178.415  190.414  183.713  185.475  188.212  194.221  197.342  202.399  209.008  223.701  225.755  225.816  227.524  238.686  245.452  237.171  233.179  227.843  223.783  218.233  211.928  206.553  211.640  200.318  198.401  194.568  193.909  189.098  186.212  184.786  184.721  185.494  179.889  179.774  178.121  185.494  174.906  174.459  174.071  174.132  173.496  172.863  173.394  183.682  174.304  173.923  173.409  174.727  177.345  174.527  175.778  175.209  179.495  173.864  175.379  174.295  182.905  174.171  173.515  171.343  172.261  172.030  171.030  170.966  170.383  179.150  169.093  170.003  170.222  171.765  169.476  169.182  169.588  174.458  168.689  169.539  169.290  176.268  170.033  168.838  170.271  169.480  169.484  170.055  170.151  170.158  179.552  169.606  169.602  169.893  171.830  170.207  171.340  170.446  175.724  170.642  169.432 
* entered azoff 0.000000 eloff 0.000000
DATE 2017:094:10:30:27 obsn  67 az 167 el 25 freq_MHz  1420.4000 Tsys 145.521 Tant 31.700 vlsr  -39.05 glat -0.205 glon  0.117 azoff 0.00 eloff 0.00 source G0.0 
Fstart 1419.397 fstop 1421.403 spacing 0.009375 bw    2.400 fbw    2.000 MHz nfreq 256 nsam 5242880 npoint 214 integ     3 sigma    0.830 bsw 0
Spectrum      3 integration periods
 169.903  168.930  168.923  171.902  168.712  168.939  170.015  172.886  169.179  169.739  168.971  168.370  168.668  167.714  167.897  170.947  171.764  168.902  168.364  169.053  171.555  169.098  169.487  167.509  171.271  170.813  167.156  168.128  172.680  168.741  168.530  170.604  170.808  168.516  168.123  169.766  168.635  170.696  169.420  169.577  168.841  172.862  169.000  168.598  168.462  168.800  169.074  169.106  168.551  170.315  174.190  170.194  169.748  170.985  171.225  170.825  170.699  169.213  170.701  168.277  167.193  168.313  173.223  171.725  171.044  169.904  170.618  169.992  171.737  175.351  182.957  191.268  171.831  172.335  170.055  175.530  172.335  170.994  173.576  172.486  171.567  170.752  170.728  172.603  175.462  171.940  175.217  173.370  172.020  172.733  171.871  171.396  172.014  171.785  171.753  172.100  176.174  170.858  170.734  169.830  172.093  170.985  171.599  172.012  170.725  172.831  172.124  171.307  173.622  175.942  173.469  175.089  173.028  175.413  175.474  178.234  177.595  180.760  188.748  183.726  188.998  192.963  196.845  197.932  204.856  211.995  221.098  227.805  229.658  224.599  228.997  241.641  239.039  234.986  228.851  222.030  214.084  210.741  206.497  206.206  198.820  196.980  194.613  189.933  188.379  182.946  180.413  181.213  182.831  177.954  177.108  174.852  181.895  173.558  176.111  177.586  173.959  174.254  174.284  174.542  180.437  173.383  174.899  174.534  174.624  175.754  175.374  172.907  175.683  178.772  173.916  173.419  174.773  178.492  173.482  172.434  173.259  172.041  171.387  172.841  171.327  170.770  175.955  171.509  169.738  170.318  172.196  171.622  171.288  169.790  174.343  169.507  171.311  169.945  175.054  171.462  169.529  171.229  171.357  169.829  171.276  171.018  170.409  174.697  170.382  171.256  170.790  171.646  171.612  171.499  171.524  174.064  170.256  170.180 
DATE 2017:094:10:30:40 obsn  68 az 167 el 25 freq_MHz  1420.4000 Tsys 145.521 Tant 31.840 vlsr  -39.05 glat -0.205 glon  0.117 azoff 0.00 eloff 0.00 source G0.0 
Fstart 1419.397 fstop 1421.403 spacing 0.009375 bw    2.400 fbw    2.000 MHz nfreq 256 nsam 5242880 npoint 214 integ    14 sigma    0.399 bsw 0
Spectrum     13 integration periods
