DATE 2017:042:01:43:19 obsn   0 az 159 el 49 freq_MHz  1420.4010 Tsys 171.000 Tant 461.047 vlsr   40.36 glat -19.187 glon 209.124 source Orion 
Fstart 1419.398 fstop 1421.404 spacing 0.009375 bw    2.400 fbw    2.000 MHz nfreq 256 nsam 5242880 npoint 214 integ     9 sigma    0.597 bsw 0
Spectrum      8 integration periods
 261.975  274.459  285.854  294.956  306.941  317.561  327.818  337.956  350.646  359.933  368.673  377.119  389.833  397.738  405.208  412.241  419.989  426.385  433.337  440.349  449.805  449.519  454.437  460.033  461.802  467.597  469.588  469.775  474.544  474.421  474.512  479.192  478.156  477.315  475.076  477.260  474.707  475.179  473.953  473.617  471.318  471.392  468.627  467.336  463.347  459.092  458.762  458.175  457.401  455.379  454.236  453.519  452.632  448.722  450.024  446.520  445.548  443.836  442.727  447.375  445.181  443.126  443.568  450.597  443.747  441.321  446.737  445.364  456.136  443.406  457.590  467.147  451.480  453.270  456.575  458.106  462.765  465.185  466.624  471.984  478.573  486.197  493.787  502.800  515.628  530.747  546.390  563.886  572.971  587.525  581.634  563.981  549.117  540.788  534.474  531.750  531.116  535.148  530.143  529.357  521.814  522.141  520.040  519.917  521.547  519.368  523.024  522.712  518.354  520.172  518.477  518.488  516.110  518.677  516.830  518.097  513.693  513.831  512.247  511.190  506.841  504.306  501.022  499.373  500.044  497.133  492.756  487.499  488.167  486.501  486.262  479.577  474.223  473.241  470.040  469.202  465.104  463.544  459.729  457.992  455.808  456.596  455.248  450.800  450.437  450.751  448.278  450.151  449.523  448.462  445.155  448.838  450.867  447.743  446.067  449.060  449.143  453.754  449.872  457.677  455.682  456.914  457.364  461.180  463.008  461.298  464.769  469.576  470.542  474.657  476.190  474.929  475.724  480.046  481.060  480.621  485.863  485.935  486.843  485.604  490.022  489.070  488.351  488.605  485.707  486.245  485.733  481.266  478.399  475.606  474.140  469.679  463.247  460.373  455.225  448.440  442.530  438.635  429.448  420.521  413.868  405.156  394.848  388.332  377.126  374.733  361.336  345.468  335.913  325.030  312.849  302.572  290.610  279.638 
DATE 2017:042:01:43:32 obsn   1 az 159 el 49 freq_MHz  1420.4010 Tsys 171.000 Tant 458.473 vlsr   40.36 glat -19.187 glon 209.124 source Orion 
Fstart 1419.398 fstop 1421.404 spacing 0.009375 bw    2.400 fbw    2.000 MHz nfreq 256 nsam 5242880 npoint 214 integ    20 sigma    0.398 bsw 0
Spectrum     18 integration periods
 262.168  274.628  285.144  294.730  307.035  318.327  328.161  338.059  350.551  359.460  368.781  378.598  388.987  396.810  405.257  412.503  421.257  427.001  432.271  439.264  446.947  450.458  454.640  459.601  463.402  466.575  469.455  469.284  473.978  475.261  475.507  477.687  477.269  476.716  476.379  476.695  477.348  474.957  474.723  472.666  471.948  469.481  468.781  467.224  463.744  459.675  459.676  457.512  456.725  455.514  453.077  453.523  451.988  446.959  449.844  447.303  445.565  444.173  443.744  444.448  443.450  442.122  443.410  448.173  443.059  441.480  444.865  443.406  456.924  446.430  459.017  463.360  450.347  453.605  456.822  458.605  462.216  463.891  467.268  472.254  476.308  484.647  491.659  500.858  514.743  531.002  547.957  561.808  572.473  584.741  578.554  562.866  549.020  540.439  534.388  529.624  529.206  531.789  528.339  526.659  521.761  521.103  521.026  519.034  519.536  519.855  521.398  520.401  519.534  520.021  519.212  518.585  517.928  519.291  517.388  516.239  513.201  512.676  510.291  510.413  507.019  503.719  499.710  498.981  497.798  496.174  491.019  488.246  488.002  485.760  484.484  478.923  474.496  474.304  469.541  467.285  466.471  463.895  459.245  459.919  456.331  457.153  455.074  451.529  450.813  450.369  448.513  450.495  449.304  447.431  446.270  447.849  450.927  448.341  447.282  447.973  449.002  452.047  450.292  454.486  454.240  455.382  457.452  460.593  462.020  461.849  463.009  468.554  467.695  472.352  472.614  474.964  475.130  478.871  480.114  480.242  483.068  484.160  485.822  485.648  488.730  488.146  486.961  486.990  486.067  483.414  482.750  481.795  477.666  473.844  473.082  467.756  463.950  459.674  455.200  446.819  442.827  437.106  427.847  420.407  412.672  403.929  394.591  387.897  376.353  372.894  361.307  345.632  335.088  323.456  313.014  301.835  290.118  279.205 
DATE 2017:042:01:43:45 obsn   2 az 159 el 49 freq_MHz  1420.4010 Tsys 171.000 Tant 457.927 vlsr   40.36 glat -19.187 glon 209.124 source Orion 
Fstart 1419.398 fstop 1421.404 spacing 0.009375 bw    2.400 fbw    2.000 MHz nfreq 256 nsam 5242880 npoint 214 integ    31 sigma    0.319 bsw 0
Spectrum     28 integration periods
 261.501  274.224  284.226  295.230  306.864  317.811  327.305  338.118  349.193  359.072  368.804  378.617  388.510  396.759  405.073  412.117  420.861  426.824  432.176  439.316  446.153  449.799  453.126  458.449  462.703  465.482  468.610  468.856  473.476  475.218  475.192  477.174  476.609  476.899  475.609  475.573  476.141  474.294  473.055  471.917  471.659  469.758  467.793  465.690  463.280  460.140  459.471  457.243  456.340  455.217  452.283  451.348  451.044  446.543  448.859  446.068  445.228  443.898  443.020  443.470  442.677  441.427  442.987  447.555  441.868  440.320  443.805  443.310  457.612  447.136  460.226  462.035  450.537  452.999  454.393  458.034  462.090  463.611  467.282  471.701  476.712  484.087  490.945  500.808  513.317  529.172  547.828  561.411  572.967  583.509  578.326  563.637  548.350  539.818  533.536  528.876  529.500  531.303  527.134  526.139  521.979  521.073  520.464  519.501  520.054  520.114  520.934  520.119  520.558  520.113  518.693  519.134  518.016  518.443  516.827  514.927  512.030  511.710  511.026  510.171  505.530  503.583  500.049  499.231  496.531  495.318  490.105  488.546  487.419  484.927  484.025  477.785  474.987  473.452  468.818  466.940  466.676  463.136  459.458  459.122  457.302  455.772  454.339  451.398  450.959  450.579  448.740  449.161  448.971  447.439  446.980  447.550  451.695  446.850  447.347  448.005  448.994  451.356  449.437  454.255  454.154  455.472  456.595  459.686  462.056  461.748  462.478  466.904  467.586  470.860  472.015  473.415  474.573  478.154  480.445  480.348  482.837  483.602  485.088  484.397  487.791  486.103  487.064  486.216  484.762  482.600  481.459  481.320  477.992  474.326  471.549  467.719  464.206  459.240  455.131  447.022  442.180  436.251  427.865  419.931  412.033  404.183  394.248  388.197  376.322  372.070  360.741  345.415  334.544  323.847  313.115  301.562  289.983  278.319 
DATE 2017:042:01:43:58 obsn   3 az 159 el 49 freq_MHz  1420.4010 Tsys 171.000 Tant 458.218 vlsr   40.36 glat -19.187 glon 209.124 source Orion 
Fstart 1419.398 fstop 1421.404 spacing 0.009375 bw    2.400 fbw    2.000 MHz nfreq 256 nsam 5242880 npoint 214 integ    42 sigma    0.274 bsw 0
Spectrum     38 integration periods
 261.356  274.022  283.850  295.020  306.062  316.807  327.419  337.522  348.004  358.255  367.984  377.814  387.989  396.733  404.323  412.486  419.635  426.553  432.154  439.278  444.968  448.264  452.760  457.926  461.759  464.728  467.739  469.095  472.617  474.483  473.861  476.076  475.346  475.911  475.146  474.313  475.227  473.173  472.264  472.104  471.084  468.631  467.714  465.489  462.616  460.234  459.211  456.332  455.817  453.953  452.218  450.829  449.808  446.384  448.726  445.813  445.457  443.305  442.629  443.208  441.436  440.656  442.471  446.860  441.623  440.417  443.620  443.542  457.032  447.994  460.588  462.327  450.234  452.250  454.243  457.812  461.976  462.614  466.091  471.572  476.594  483.941  490.849  500.369  513.460  529.193  547.443  561.571  572.874  583.375  577.472  562.783  549.377  539.971  532.723  528.006  528.889  531.057  526.892  525.947  521.617  520.847  520.343  518.762  519.135  519.630  520.112  519.769  520.293  519.141  518.976  518.979  517.988  518.438  517.314  514.719  512.546  511.359  510.772  509.200  505.438  503.152  500.878  498.908  496.171  495.147  491.008  488.737  486.963  485.415  483.413  476.822  474.547  473.796  468.667  467.327  465.831  462.802  459.673  458.907  457.814  455.500  454.172  451.926  450.441  450.073  449.125  448.634  448.820  447.453  446.981  446.833  451.447  446.453  447.093  448.755  448.917  450.597  450.311  452.893  454.200  455.676  456.550  459.787  460.539  461.568  462.186  466.618  467.357  470.317  471.617  472.997  474.027  478.397  480.414  480.067  482.430  483.646  484.564  484.783  486.785  485.469  486.586  485.543  483.887  483.854  481.058  479.491  476.780  473.924  471.645  467.635  463.787  459.394  455.093  447.422  441.521  435.550  427.409  419.731  411.917  404.088  393.892  387.533  376.420  372.168  360.133  345.034  334.741  323.379  312.533  301.005  289.689  278.386 
DATE 2017:042:01:44:11 obsn   4 az 159 el 49 freq_MHz  1420.4010 Tsys 171.000 Tant 458.119 vlsr   40.36 glat -19.187 glon 209.124 source Orion 
Fstart 1419.398 fstop 1421.404 spacing 0.009375 bw    2.400 fbw    2.000 MHz nfreq 256 nsam 5242880 npoint 214 integ    52 sigma    0.244 bsw 0
Spectrum     48 integration periods
 261.293  273.568  283.302  294.732  305.809  316.443  327.328  337.370  347.810  358.400  367.416  377.520  387.285  396.203  403.712  411.863  419.355  426.122  431.558  438.950  443.555  448.220  452.518  457.235  460.833  464.653  467.089  468.505  472.536  474.422  474.048  475.421  475.027  475.098  475.090  473.701  474.532  472.068  471.762  471.069  470.739  468.279  466.817  464.346  461.838  460.031  458.641  455.803  455.180  453.814  452.055  450.562  449.769  446.477  448.263  445.531  445.227  443.114  442.164  442.971  441.521  440.632  441.731  446.375  441.499  440.145  443.697  443.782  457.190  447.704  459.726  462.147  450.412  451.407  454.097  457.740  462.203  462.698  466.639  470.989  476.166  483.486  490.542  500.136  513.179  528.985  547.244  560.742  572.730  582.634  576.219  562.706  549.435  539.231  532.354  527.621  528.563  530.527  526.398  525.441  521.132  520.566  519.191  518.724  519.158  519.657  519.527  519.394  519.752  518.777  518.941  518.859  517.048  517.867  516.539  514.271  512.427  511.724  510.145  508.989  505.488  503.265  500.247  498.326  496.155  494.412  491.182  487.679  486.252  485.416  482.824  476.728  474.213  473.358  468.772  466.839  465.359  462.493  460.210  458.955  457.407  455.318  453.239  451.892  450.080  449.960  448.980  448.653  448.006  446.909  446.030  446.675  451.236  446.489  446.909  448.810  448.550  449.759  449.989  452.520  453.686  455.435  455.970  459.080  460.116  461.110  462.406  466.181  467.268  470.162  471.146  472.932  474.277  477.973  480.301  480.062  482.560  483.506  484.035  484.499  486.190  485.148  485.703  485.153  483.985  483.762  481.087  478.139  476.181  473.183  470.690  467.402  463.308  458.788  454.914  446.872  440.217  435.163  427.409  419.051  411.605  403.516  393.814  386.912  376.034  372.424  360.164  344.944  334.652  322.940  312.543  300.788  289.427  278.242 
DATE 2017:042:01:44:24 obsn   5 az 159 el 49 freq_MHz  1420.4010 Tsys 171.000 Tant 459.225 vlsr   40.37 glat -19.187 glon 209.124 source Orion 
Fstart 1419.398 fstop 1421.404 spacing 0.009375 bw    2.400 fbw    2.000 MHz nfreq 256 nsam 5242880 npoint 214 integ    63 sigma    0.222 bsw 0
Spectrum     58 integration periods
 261.116  273.534  282.876  294.684  305.684  316.440  327.370  337.099  347.577  358.286  367.629  377.127  386.973  395.914  403.610  411.742  418.769  425.714  431.945  438.641  443.085  447.684  452.565  457.130  460.766  463.885  467.315  468.401  472.172  473.649  474.245  475.647  474.769  474.799  474.790  473.518  474.264  472.358  472.230  471.180  470.912  468.378  466.953  464.648  462.070  460.014  458.761  456.075  455.398  453.426  451.708  450.321  449.705  446.612  448.100  445.389  445.040  443.173  442.228  442.690  441.112  440.430  441.430  445.915  441.294  440.475  443.276  443.687  457.346  447.800  460.105  461.499  450.285  451.779  454.182  457.398  461.677  462.623  466.147  471.137  476.441  483.126  490.492  500.225  513.523  528.955  547.069  560.755  573.075  582.922  576.553  562.867  549.712  539.140  532.922  527.643  528.871  530.421  526.440  525.401  521.607  520.357  518.760  518.986  519.278  519.539  519.779  519.537  519.935  518.889  519.131  519.255  517.279  518.018  516.475  514.238  512.987  512.119  510.201  508.311  505.047  503.409  500.559  498.373  496.107  494.338  490.723  488.223  485.620  485.709  482.419  476.996  474.443  473.342  469.433  467.039  465.230  462.815  460.347  458.823  457.581  455.880  453.613  451.483  449.903  449.759  449.181  448.378  447.778  446.831  446.091  446.618  451.588  446.281  446.836  448.623  448.558  449.551  450.205  452.421  453.750  455.388  456.313  459.154  460.011  461.265  462.482  465.955  466.920  470.280  471.309  473.106  474.441  477.483  480.016  479.954  482.667  483.448  483.752  484.233  485.761  485.297  485.410  485.208  483.756  483.674  480.827  478.895  476.573  472.976  470.326  467.450  462.868  459.161  454.827  446.864  439.926  434.763  427.722  419.123  411.655  403.602  393.707  386.606  375.964  372.384  360.169  345.325  334.728  322.935  312.309  300.989  289.413  278.543 
DATE 2017:042:01:44:37 obsn   6 az 159 el 49 freq_MHz  1420.4010 Tsys 171.000 Tant 461.240 vlsr   40.37 glat -19.187 glon 209.124 source Orion 
Fstart 1419.398 fstop 1421.404 spacing 0.009375 bw    2.400 fbw    2.000 MHz nfreq 256 nsam 5242880 npoint 214 integ    74 sigma    0.205 bsw 0
Spectrum     68 integration periods
 261.215  273.546  283.002  294.780  305.645  316.381  327.295  337.153  347.596  358.092  367.684  377.111  387.135  395.724  403.545  411.518  418.776  425.684  431.614  438.253  443.196  447.806  452.864  457.444  460.523  463.445  467.229  468.320  472.669  473.846  474.242  475.473  474.680  474.791  474.253  473.639  474.272  472.463  471.885  471.141  470.675  468.264  466.812  464.699  462.396  459.894  458.540  456.074  455.245  453.875  451.616  450.017  449.313  446.823  448.231  445.242  444.919  443.405  442.314  442.393  440.701  440.338  441.512  446.290  441.220  440.565  442.698  443.561  457.154  447.883  460.493  461.111  449.686  451.776  454.000  457.703  461.423  462.973  466.241  471.231  476.333  483.146  490.715  500.633  513.059  529.397  547.152  561.113  573.448  583.272  576.374  563.052  549.943  539.190  532.853  528.171  529.419  530.614  526.664  525.679  521.854  520.565  519.091  519.201  519.139  519.669  519.735  519.752  520.100  519.179  519.187  519.193  517.558  517.766  516.770  514.830  512.991  512.169  509.877  508.199  505.306  503.494  500.681  498.101  495.655  494.078  491.020  488.358  486.068  485.394  482.597  477.127  474.731  473.442  469.854  467.262  465.328  463.105  460.352  458.912  457.485  455.787  453.668  451.611  449.830  449.830  448.962  448.217  448.082  446.826  446.252  446.641  451.628  446.151  446.922  448.998  448.564  449.693  450.053  451.892  453.718  455.413  456.412  458.901  459.560  461.596  463.084  465.952  467.216  470.052  471.342  473.027  474.676  477.403  479.656  479.951  482.803  483.234  483.757  483.929  485.807  485.600  485.412  485.084  483.421  483.657  480.575  478.972  476.955  473.184  470.603  467.826  462.960  459.413  454.499  447.012  440.074  434.795  427.807  419.613  411.870  403.544  393.826  386.221  375.747  372.335  359.886  345.270  334.712  322.918  312.042  300.661  289.229  278.799 
DATE 2017:042:01:44:51 obsn   7 az 159 el 49 freq_MHz  1420.4010 Tsys 171.000 Tant 460.878 vlsr   40.37 glat -19.187 glon 209.124 source Orion 
Fstart 1419.398 fstop 1421.404 spacing 0.009375 bw    2.400 fbw    2.000 MHz nfreq 256 nsam 5242880 npoint 214 integ    85 sigma    0.191 bsw 0
Spectrum     78 integration periods
 261.237  273.647  283.138  294.714  305.728  316.341  327.383  337.236  348.034  357.815  367.805  377.287  387.110  395.737  403.538  411.480  418.521  425.659  431.440  438.084  443.372  447.861  452.895  457.530  460.619  463.702  467.172  468.333  472.832  473.720  474.345  475.240  474.704  474.970  474.242  473.363  474.149  472.498  471.700  471.153  470.407  468.312  466.666  464.485  462.664  460.126  458.638  456.194  455.392  454.437  452.174  450.209  449.570  447.306  448.095  445.217  444.883  443.674  442.436  442.407  440.805  440.573  441.387  446.356  441.660  440.848  442.902  443.583  457.201  447.532  460.842  461.119  449.763  451.867  454.033  457.754  461.138  463.252  466.247  471.360  476.546  483.179  490.549  500.578  513.044  529.324  547.381  561.188  573.713  583.641  576.588  562.955  550.053  539.251  532.732  528.191  528.905  530.311  526.717  525.517  521.327  520.244  519.227  519.145  519.152  519.868  519.948  519.440  520.247  519.516  519.171  519.605  517.762  517.841  516.429  514.866  513.423  511.988  509.851  508.369  505.554  503.538  500.637  498.391  495.885  494.228  491.285  488.273  486.190  485.598  482.737  477.291  474.678  473.132  470.061  467.285  465.570  463.145  460.327  458.616  457.475  455.479  453.729  451.810  449.827  449.708  448.964  448.122  447.500  446.991  446.189  446.638  451.535  446.198  446.866  449.101  448.733  449.771  450.026  451.654  453.772  455.296  456.313  458.772  459.388  461.714  463.314  465.870  467.291  470.211  471.453  473.351  474.686  477.266  479.758  480.350  483.048  483.105  483.883  484.284  485.910  485.541  485.548  484.989  483.562  483.681  481.091  479.191  476.928  473.273  470.769  467.894  462.842  459.217  454.394  447.101  439.957  434.905  427.743  419.475  411.849  403.336  393.623  386.242  375.976  372.238  359.935  345.288  334.635  322.509  312.190  300.813  289.271  278.728 
DATE 2017:042:01:45:04 obsn   8 az 159 el 49 freq_MHz  1420.4010 Tsys 171.000 Tant 462.302 vlsr   40.37 glat -19.187 glon 209.124 source Orion 
Fstart 1419.398 fstop 1421.404 spacing 0.009375 bw    2.400 fbw    2.000 MHz nfreq 256 nsam 5242880 npoint 214 integ    96 sigma    0.180 bsw 0
Spectrum     88 integration periods
