DATE 2017:046:23:55:01 obsn   0 az 294 el 61 freq_MHz  1420.4000 Tsys 138.000 Tant 61.363 vlsr   18.27 glat -21.254 glon 121.937 source Andr 
Fstart 1419.397 fstop 1421.403 spacing 0.009375 bw    2.400 fbw    2.000 MHz nfreq 256 nsam 5242880 npoint 214 integ    78 sigma    0.162 bsw 0
Spectrum     71 integration periods
 196.921  196.994  197.587  197.651  198.157  197.910  200.391  198.809  198.659  197.946  198.122  197.663  197.498  197.906  197.081  196.771  196.868  195.980  195.840  196.255  196.480  196.813  196.436  196.859  197.101  196.813  197.146  197.131  197.713  197.601  197.649  197.906  198.221  198.390  198.252  198.480  198.191  198.377  198.606  198.412  198.616  199.020  198.386  198.437  198.294  198.317  198.219  197.583  197.817  198.254  198.266  197.892  197.706  197.602  198.182  197.574  197.419  197.496  197.939  197.643  197.750  197.424  197.684  198.710  197.491  197.485  197.878  198.439  201.754  201.312  197.619  199.045  198.745  198.019  197.720  198.083  197.552  197.699  197.585  198.095  197.967  197.909  198.461  198.847  198.670  199.150  199.230  199.492  199.769  200.175  200.018  199.811  199.732  199.878  200.092  200.681  201.647  202.217  203.209  205.344  207.138  210.162  211.377  211.580  210.833  208.387  206.010  204.668  203.217  203.620  203.887  203.627  203.208  204.248  203.790  203.634  203.810  203.564  203.369  202.833  202.971  202.266  202.536  202.430  202.744  202.422  202.857  202.409  202.872  203.147  203.285  202.896  202.670  202.971  202.524  202.509  202.610  202.627  201.825  201.779  201.885  201.727  201.723  201.542  201.306  201.025  202.135  201.943  202.078  201.184  202.008  201.280  201.988  201.562  201.714  201.862  201.915  201.258  201.491  201.682  201.870  201.336  201.027  201.715  201.333  201.254  201.053  200.981  201.118  200.999  201.575  200.766  200.766  201.283  201.620  201.428  201.537  201.576  201.248  201.189  201.543  202.056  202.005  202.200  202.142  202.101  202.674  202.401  202.407  202.244  203.069  201.991  201.809  202.257  202.018  202.131  201.774  201.837  201.487  201.350  201.284  200.564  200.811  201.193  200.871  202.103  202.178  201.101  201.685  201.940  202.023  202.535  209.678  201.807 
DATE 2017:046:23:55:14 obsn   1 az 294 el 61 freq_MHz  1420.4000 Tsys 138.000 Tant 57.554 vlsr   18.27 glat -21.254 glon 121.937 source Andr 
Fstart 1419.397 fstop 1421.403 spacing 0.009375 bw    2.400 fbw    2.000 MHz nfreq 256 nsam 5242880 npoint 214 integ    88 sigma    0.152 bsw 0
Spectrum     81 integration periods
 196.169  196.344  196.893  196.964  197.466  197.286  199.588  198.169  197.919  197.410  197.555  196.941  196.842  197.192  196.514  195.993  196.231  195.367  195.135  195.572  195.799  196.225  195.824  196.141  196.423  196.175  196.508  196.575  196.959  197.005  197.053  197.315  197.720  197.847  197.720  197.856  197.580  197.851  197.969  197.825  198.007  198.303  197.842  197.805  197.678  197.665  197.652  197.098  197.324  197.748  197.752  197.362  197.262  196.977  197.529  197.107  196.816  196.898  197.275  197.159  197.098  196.849  197.105  198.172  196.915  196.984  197.188  197.855  201.374  200.876  197.430  198.557  198.044  197.393  197.079  197.568  196.993  197.040  196.945  197.632  197.433  197.282  197.823  198.236  198.159  198.480  198.710  198.861  199.129  199.555  199.418  199.182  199.239  199.346  199.351  200.031  200.960  201.661  202.600  204.638  206.643  209.374  210.757  210.920  210.228  207.777  205.638  204.106  202.681  202.976  203.197  202.979  202.502  203.475  203.222  203.199  203.182  202.958  202.773  202.248  202.280  201.714  201.954  201.774  202.087  201.751  202.310  201.826  202.316  202.484  202.746  202.297  202.077  202.515  201.909  201.939  202.021  202.013  201.023  201.190  201.249  201.206  201.065  200.955  200.658  200.381  201.518  201.265  201.478  200.654  201.334  200.656  201.406  200.942  201.051  201.458  201.240  200.740  200.895  200.992  201.245  200.855  200.314  201.053  200.800  200.662  200.436  200.346  200.634  200.455  201.042  200.283  200.081  200.683  201.063  200.852  200.985  200.973  200.622  200.539  200.937  201.373  201.316  201.521  201.564  201.488  201.954  201.817  201.801  201.652  202.363  201.363  201.140  201.615  201.341  201.497  201.172  201.102  200.628  200.782  200.720  200.077  200.127  200.565  200.149  201.406  201.369  200.463  200.913  201.108  201.289  201.730  208.113  201.031 
DATE 2017:046:23:55:27 obsn   2 az 294 el 61 freq_MHz  1420.4000 Tsys 138.000 Tant 75.078 vlsr   18.27 glat -21.254 glon 121.937 source Andr 
Fstart 1419.397 fstop 1421.403 spacing 0.009375 bw    2.400 fbw    2.000 MHz nfreq 256 nsam 5242880 npoint 214 integ    99 sigma    0.143 bsw 0
Spectrum     91 integration periods
 195.584  195.810  196.390  196.464  196.980  196.793  199.107  197.758  197.454  196.993  196.953  196.629  196.330  196.737  196.093  195.681  195.740  195.038  194.638  195.148  195.361  195.691  195.336  195.632  195.897  195.731  196.107  196.329  196.486  196.589  196.656  197.008  197.291  197.485  197.197  197.422  197.102  197.336  197.496  197.354  197.607  197.799  197.375  197.383  197.273  197.231  197.163  196.823  197.009  197.469  197.306  196.932  196.982  196.685  197.114  196.696  196.398  196.507  196.876  196.764  196.840  196.470  196.627  197.640  196.501  196.589  196.881  197.423  201.026  200.509  197.335  198.188  197.577  197.142  196.751  197.140  196.638  196.737  196.609  197.138  197.038  196.874  197.464  197.803  197.726  198.036  198.172  198.446  198.692  199.128  199.014  198.721  198.820  198.985  199.028  199.672  200.560  201.233  202.219  204.157  206.191  209.004  210.374  210.540  209.783  207.501  205.320  203.825  202.422  202.697  202.730  202.613  202.159  203.150  202.853  202.835  202.878  202.566  202.416  201.875  201.858  201.401  201.493  201.463  201.693  201.370  201.851  201.499  201.834  202.088  202.279  201.864  201.716  202.155  201.477  201.576  201.592  201.571  200.668  200.834  200.900  200.734  200.659  200.614  200.221  199.883  201.074  200.746  201.033  200.339  200.907  200.224  200.996  200.545  200.590  201.200  200.809  200.344  200.558  200.518  200.747  200.465  199.950  200.577  200.394  200.318  199.961  199.951  200.240  200.119  200.577  200.059  199.689  200.391  200.520  200.381  200.623  200.627  200.235  200.136  200.582  200.863  200.921  201.102  201.113  201.031  201.530  201.404  201.386  201.202  201.822  200.953  200.736  201.097  200.811  201.123  200.745  200.677  200.230  200.357  200.310  199.752  199.696  200.032  199.823  200.854  200.902  199.959  200.395  200.600  200.782  201.259  207.051  200.621 
DATE 2017:046:23:55:40 obsn   3 az 294 el 61 freq_MHz  1420.4000 Tsys 138.000 Tant 62.750 vlsr   18.27 glat -21.254 glon 121.937 source Andr 
Fstart 1419.397 fstop 1421.403 spacing 0.009375 bw    2.400 fbw    2.000 MHz nfreq 256 nsam 5242880 npoint 214 integ   110 sigma    0.136 bsw 0
Spectrum    101 integration periods
 196.040  196.485  196.847  196.975  197.556  197.308  199.613  198.284  198.000  197.641  197.512  197.258  196.946  197.239  196.641  196.360  196.329  195.653  195.199  195.718  195.939  196.318  195.956  196.246  196.566  196.252  196.797  196.973  197.148  197.183  197.253  197.695  197.824  198.082  197.884  197.955  197.737  198.037  198.137  197.952  198.334  198.434  198.079  197.903  197.902  197.933  197.770  197.574  197.680  198.130  197.998  197.600  197.574  197.411  197.811  197.497  197.079  197.054  197.492  197.439  197.582  197.054  197.301  198.300  197.213  197.209  197.539  198.020  201.836  201.128  198.165  198.858  198.244  197.803  197.421  197.803  197.304  197.424  197.325  197.789  197.641  197.511  198.038  198.451  198.468  198.763  199.110  199.047  199.473  199.746  199.643  199.486  199.517  199.728  199.829  200.270  201.261  201.747  202.942  204.884  207.016  209.742  210.969  211.262  210.478  208.288  206.231  204.565  203.116  203.347  203.569  203.297  202.864  203.918  203.420  203.338  203.554  203.144  203.121  202.628  202.621  202.155  202.108  202.260  202.442  202.125  202.526  202.209  202.532  202.790  202.941  202.494  202.359  202.862  202.109  202.162  202.205  202.336  201.321  201.625  201.569  201.440  201.272  201.349  201.015  200.605  201.668  201.417  201.590  200.924  201.457  200.838  201.587  201.199  201.268  201.744  201.441  200.957  201.066  201.214  201.384  201.084  200.651  201.167  200.910  200.924  200.608  200.538  200.860  200.729  201.200  200.501  200.252  200.993  201.031  200.920  201.261  201.211  200.717  200.753  201.187  201.363  201.356  201.763  201.633  201.527  202.017  201.881  201.871  201.777  202.378  201.321  201.365  201.642  201.337  201.562  201.192  201.314  200.799  200.936  200.767  200.185  200.151  200.540  200.459  201.217  201.332  200.428  200.767  201.140  201.232  201.684  207.031  201.051 
DATE 2017:046:23:55:53 obsn   4 az 294 el 61 freq_MHz  1420.4000 Tsys 138.000 Tant 63.110 vlsr   18.27 glat -21.254 glon 121.937 source Andr 
Fstart 1419.397 fstop 1421.403 spacing 0.009375 bw    2.400 fbw    2.000 MHz nfreq 256 nsam 5242880 npoint 214 integ   121 sigma    0.129 bsw 0
Spectrum    111 integration periods
 196.223  196.783  196.972  197.162  197.729  197.596  199.873  198.492  198.243  197.907  197.824  197.534  197.172  197.423  196.704  196.542  196.510  195.900  195.417  195.950  196.205  196.576  196.167  196.500  196.871  196.431  197.020  197.127  197.498  197.495  197.516  197.835  197.998  198.368  198.091  198.229  197.995  198.227  198.461  198.190  198.603  198.651  198.411  198.096  198.193  198.148  198.050  197.822  197.905  198.357  198.205  197.831  197.889  197.743  197.964  197.752  197.309  197.337  197.720  197.669  197.737  197.257  197.515  198.747  197.502  197.525  197.833  198.353  202.229  201.446  198.154  199.063  198.562  198.173  197.598  198.075  197.554  197.837  197.743  197.955  197.906  197.840  198.289  198.680  198.809  198.934  199.323  199.250  199.790  200.095  199.838  199.780  199.847  200.023  200.167  200.580  201.579  202.081  203.228  205.162  207.337  209.983  211.241  211.587  210.815  208.517  206.627  204.878  203.452  203.651  203.862  203.550  203.164  204.169  203.703  203.531  203.753  203.462  203.477  203.039  202.961  202.403  202.472  202.608  202.743  202.544  202.824  202.521  202.866  203.173  203.367  202.688  202.686  203.105  202.431  202.425  202.441  202.670  201.584  201.868  201.750  201.716  201.513  201.601  201.349  200.848  201.792  201.593  201.877  201.222  201.697  201.092  201.850  201.453  201.495  202.022  201.703  201.166  201.261  201.391  201.588  201.303  200.866  201.324  201.104  201.179  200.892  200.788  200.986  200.961  201.470  200.736  200.492  201.171  201.272  201.188  201.488  201.382  200.985  201.018  201.524  201.532  201.595  202.029  201.963  201.771  202.165  202.010  202.139  202.007  202.477  201.548  201.520  201.723  201.444  201.685  201.322  201.482  201.026  201.080  200.879  200.378  200.369  200.754  200.631  201.313  201.526  200.604  200.953  201.315  201.391  201.771  206.698  201.179 
DATE 2017:046:23:56:06 obsn   5 az 294 el 61 freq_MHz  1420.4000 Tsys 138.000 Tant 68.170 vlsr   18.27 glat -21.254 glon 121.937 source Andr 
Fstart 1419.397 fstop 1421.403 spacing 0.009375 bw    2.400 fbw    2.000 MHz nfreq 256 nsam 5242880 npoint 214 integ   132 sigma    0.124 bsw 0
Spectrum    121 integration periods
 196.734  197.150  197.363  197.546  198.151  198.138  200.261  198.941  198.630  198.372  198.358  198.083  197.600  197.775  197.171  197.098  196.913  196.384  195.959  196.460  196.738  197.080  196.711  196.886  197.221  196.959  197.458  197.540  197.942  197.961  197.951  198.332  198.386  198.787  198.595  198.780  198.602  198.820  198.964  198.715  199.061  199.126  198.953  198.647  198.640  198.625  198.581  198.276  198.426  198.840  198.667  198.367  198.341  198.278  198.501  198.158  197.798  197.830  198.236  198.211  198.157  197.740  198.058  199.286  198.154  198.059  198.374  198.836  202.932  202.005  198.846  199.603  199.111  198.566  198.179  198.691  198.070  198.300  198.253  198.466  198.377  198.463  198.722  199.120  199.380  199.493  199.820  199.790  200.301  200.614  200.483  200.296  200.451  200.538  200.693  201.139  202.192  202.636  203.766  205.738  207.848  210.457  211.726  212.190  211.353  209.063  207.084  205.403  204.088  204.184  204.452  204.030  203.726  204.728  204.179  204.060  204.373  203.967  203.961  203.525  203.546  202.986  202.901  203.179  203.327  203.124  203.303  203.093  203.432  203.713  203.859  203.289  203.178  203.661  202.996  202.894  203.078  203.063  202.214  202.380  202.249  202.252  201.994  202.149  201.834  201.484  202.289  202.096  202.313  201.726  202.048  201.622  202.397  202.046  202.014  202.499  202.151  201.692  201.752  201.910  202.085  201.804  201.297  201.706  201.604  201.651  201.380  201.173  201.406  201.384  201.896  201.132  200.928  201.552  201.671  201.673  201.920  201.923  201.467  201.437  201.997  202.051  202.095  202.401  202.357  202.096  202.525  202.511  202.520  202.484  202.898  201.914  201.817  202.127  201.907  202.169  201.688  201.987  201.429  201.352  201.253  200.811  200.755  201.112  201.006  201.639  201.891  201.032  201.366  201.642  201.791  202.161  206.641  201.551 
DATE 2017:046:23:56:19 obsn   6 az 294 el 61 freq_MHz  1420.4000 Tsys 138.000 Tant 56.305 vlsr   18.27 glat -21.254 glon 121.937 source Andr 
Fstart 1419.397 fstop 1421.403 spacing 0.009375 bw    2.400 fbw    2.000 MHz nfreq 256 nsam 5242880 npoint 214 integ   143 sigma    0.119 bsw 0
Spectrum    131 integration periods
 196.580  196.989  197.197  197.347  197.887  197.933  200.061  198.677  198.365  198.165  198.097  197.805  197.436  197.661  196.952  196.919  196.645  196.130  195.784  196.207  196.556  196.804  196.502  196.714  196.985  196.712  197.213  197.372  197.885  197.752  197.755  198.082  198.245  198.579  198.386  198.571  198.440  198.599  198.746  198.483  198.873  198.946  198.764  198.390  198.430  198.361  198.389  198.047  198.247  198.596  198.471  198.210  198.196  198.082  198.246  197.932  197.648  197.625  198.039  197.990  197.924  197.539  197.827  199.115  197.930  197.813  198.159  198.659  202.705  201.904  198.720  199.477  198.928  198.434  197.987  198.445  197.885  198.108  197.998  198.236  198.154  198.299  198.493  198.868  199.129  199.264  199.626  199.603  200.168  200.365  200.296  200.162  200.232  200.384  200.530  200.890  201.978  202.405  203.526  205.534  207.581  210.178  211.607  211.966  211.189  208.854  206.899  205.191  203.905  203.949  204.219  203.840  203.638  204.471  203.942  203.864  204.149  203.731  203.761  203.342  203.417  202.769  202.800  202.955  203.066  202.909  203.057  202.937  203.248  203.538  203.735  203.146  202.930  203.495  202.779  202.705  202.770  202.847  201.992  202.184  202.114  202.046  201.786  201.942  201.738  201.364  202.099  201.843  202.020  201.429  201.771  201.488  202.218  201.766  201.766  202.265  201.978  201.498  201.583  201.713  201.886  201.541  201.046  201.509  201.415  201.527  201.111  200.933  201.192  201.299  201.755  200.990  200.715  201.359  201.429  201.412  201.728  201.671  201.273  201.260  201.885  201.835  201.922  202.232  202.151  201.890  202.355  202.333  202.285  202.228  202.697  201.685  201.556  201.839  201.740  201.968  201.549  201.750  201.215  201.189  201.021  200.618  200.529  200.857  200.816  201.404  201.660  200.873  201.167  201.384  201.531  201.944  206.109  201.335 
DATE 2017:046:23:56:33 obsn   7 az 294 el 61 freq_MHz  1420.4000 Tsys 138.000 Tant 55.619 vlsr   18.27 glat -21.254 glon 121.937 source Andr 
Fstart 1419.397 fstop 1421.403 spacing 0.009375 bw    2.400 fbw    2.000 MHz nfreq 256 nsam 5242880 npoint 214 integ   154 sigma    0.115 bsw 0
Spectrum    141 integration periods
 196.046  196.426  196.641  196.917  197.442  197.447  199.581  198.113  197.810  197.634  197.651  197.255  196.931  197.179  196.430  196.409  196.194  195.585  195.265  195.740  196.017  196.331  195.956  196.227  196.503  196.271  196.767  196.833  197.351  197.289  197.317  197.584  197.746  198.034  197.865  198.065  197.896  198.101  198.256  198.007  198.318  198.439  198.217  197.886  197.979  197.866  197.912  197.620  197.773  198.093  197.953  197.741  197.718  197.654  197.726  197.452  197.203  197.088  197.535  197.444  197.390  197.050  197.385  198.654  197.465  197.365  197.665  198.224  202.276  201.403  198.256  198.956  198.404  197.975  197.535  198.008  197.455  197.592  197.604  197.765  197.609  197.770  198.058  198.361  198.607  198.785  199.198  199.084  199.609  199.835  199.810  199.642  199.683  199.966  200.019  200.464  201.436  201.896  202.983  205.036  207.234  209.757  211.159  211.415  210.684  208.323  206.359  204.722  203.363  203.402  203.671  203.309  203.188  203.962  203.490  203.370  203.607  203.244  203.314  202.813  202.921  202.294  202.194  202.525  202.538  202.389  202.505  202.475  202.641  203.040  203.224  202.614  202.432  202.963  202.207  202.258  202.241  202.357  201.588  201.693  201.664  201.545  201.300  201.401  201.240  200.872  201.587  201.363  201.438  200.913  201.306  201.008  201.709  201.274  201.324  201.657  201.509  201.093  201.078  201.203  201.362  201.085  200.515  201.034  200.884  201.011  200.616  200.413  200.755  200.904  201.251  200.497  200.267  200.876  200.969  200.935  201.285  201.199  200.834  200.859  201.486  201.322  201.386  201.747  201.671  201.422  201.859  201.704  201.766  201.736  202.270  201.261  201.124  201.313  201.270  201.446  201.043  201.322  200.718  200.748  200.583  200.138  199.998  200.374  200.278  200.962  201.181  200.473  200.651  200.942  201.113  201.445  205.325  200.852 
DATE 2017:046:23:56:46 obsn   8 az 294 el 61 freq_MHz  1420.4000 Tsys 138.000 Tant 57.285 vlsr   18.27 glat -21.254 glon 121.937 source Andr 
Fstart 1419.397 fstop 1421.403 spacing 0.009375 bw    2.400 fbw    2.000 MHz nfreq 256 nsam 5242880 npoint 214 integ   165 sigma    0.111 bsw 0
Spectrum    151 integration periods
