DATE 2017:116:15:01:57 obsn 413 az 292 el 56 freq_MHz  1417.5000 Tsys 165.000 Tant 447.503 vlsr  -32.85 glat  5.869 glon 76.016 azoff 0.00 eloff 0.00 source CygnusA 
Fstart 1416.497 fstop 1418.503 spacing 0.009375 bw    2.400 fbw    2.000 MHz nfreq 256 nsam 5242880 npoint 214 integ    11 sigma    0.516 bsw 0
Spectrum     10 integration periods
 452.563  453.669  454.569  455.609  456.451  455.039  457.745  454.870  454.556  454.236  455.645  454.215  454.924  452.327  451.838  456.081  454.302  453.562  454.456  455.911  458.462  453.846  457.468  451.816  453.145  454.425  454.990  455.283  453.279  456.745  457.483  456.139  454.796  452.512  454.992  457.636  453.350  454.275  454.906  452.983  455.749  455.487  457.082  452.875  452.930  454.480  454.527  451.443  452.978  458.295  453.550  456.050  450.626  451.458  454.511  454.919  452.950  455.211  455.677  454.270  453.043  453.152  456.074  454.905  451.826  453.553  452.719  453.024  455.904  457.304  455.630  454.660  453.287  451.287  453.208  456.897  452.182  450.893  453.454  452.727  454.790  451.127  454.402  455.358  451.297  453.348  453.494  451.463  451.714  454.895  453.228  450.872  455.703  451.852  453.870  453.918  451.485  450.634  451.970  452.743  453.003  451.191  455.133  453.695  450.418  450.713  453.944  465.690  451.082  454.297  451.336  448.661  452.268  451.048  450.947  450.910  453.329  451.570  450.036  453.292  455.274  447.978  451.206  452.736  451.125  452.130  451.483  452.509  451.376  451.736  450.651  452.110  452.533  451.924  451.472  450.604  452.657  451.348  451.230  452.056  451.998  451.208  451.237  450.824  450.424  449.469  448.920  451.265  450.378  449.174  448.969  451.097  450.547  451.564  449.366  448.979  448.372  450.111  447.577  450.419  449.077  450.953  449.875  449.878  450.101  449.067  447.654  449.297  452.187  449.391  447.567  449.391  446.926  447.579  449.747  450.320  451.598  447.355  449.520  447.139  448.044  450.820  450.287  448.260  446.210  446.583  446.531  449.488  450.282  449.276  448.139  449.349  449.268  449.172  447.562  450.977  449.704  445.887  447.894  448.208  446.147  448.429  447.754  448.250  446.454  445.571  444.605  447.652  445.660  448.617  446.582  447.250  450.299  448.101 
DATE 2017:116:15:02:21 obsn 414 az 283 el 56 freq_MHz  1417.5000 Tsys 165.000 Tant 266.614 vlsr  -32.85 glat  5.869 glon 76.016 azoff -8.89 eloff 0.00 source CygnusA 
Fstart 1416.497 fstop 1418.503 spacing 0.009375 bw    2.400 fbw    2.000 MHz nfreq 256 nsam 5242880 npoint 214 integ     8 sigma    1.233 bsw 3
Spectrum      7 integration periods
 441.077  435.889  435.620  433.839  435.351  434.410  433.311  435.971  434.959  435.459  435.853  438.362  437.568  437.359  434.989  433.696  434.821  436.498  434.431  439.179  437.449  435.240  435.815  435.306  433.333  435.214  436.501  435.989  437.874  436.174  435.852  434.245  435.214  433.815  435.014  435.121  435.452  436.123  434.111  437.886  435.627  435.495  435.978  435.638  435.372  434.139  433.454  431.302  435.777  438.802  432.690  433.526  430.756  437.858  433.164  436.695  436.909  435.586  432.901  435.615  432.172  433.816  436.930  432.502  433.902  436.048  437.028  438.547  437.932  434.629  432.068  437.334  437.674  432.926  434.419  434.575  434.798  437.071  431.772  434.185  435.201  436.927  436.358  434.782  435.104  436.437  435.155  433.728  434.476  435.569  434.632  436.383  436.777  432.729  433.663  435.669  433.973  433.274  433.965  437.211  433.765  434.194  436.365  432.608  434.580  432.941  438.432  439.415  435.293  437.693  437.656  434.612  436.590  435.461  433.286  436.150  437.115  434.745  434.081  436.446  435.190  433.907  434.445  435.007  438.585  436.108  433.995  433.314  436.147  437.810  440.976  438.125  436.783  437.835  440.024  435.405  439.075  435.202  436.296  441.927  437.300  436.093  434.395  435.010  433.138  434.784  436.472  435.491  435.861  437.922  436.475  437.444  438.433  435.915  435.352  436.114  435.841  436.960  439.427  436.636  437.209  437.956  438.609  434.019  436.122  436.740  436.074  436.512  435.378  436.321  435.027  437.794  437.782  436.199  437.121  440.958  438.103  436.741  436.806  436.603  436.301  438.330  438.105  437.998  437.987  437.555  441.477  440.925  438.943  434.265  438.072  435.248  435.977  437.673  435.930  437.388  438.523  432.905  438.865  436.486  439.700  436.499  438.552  437.280  439.898  440.200  439.172  437.897  439.394  439.791  439.632  433.326  437.034  436.080 
DATE 2017:116:15:02:45 obsn 415 az 292 el 56 freq_MHz  1417.5000 Tsys 165.000 Tant 300.592 vlsr  -32.85 glat  5.869 glon 76.016 azoff 0.00 eloff 0.00 source CygnusA 
Fstart 1416.497 fstop 1418.503 spacing 0.009375 bw    2.400 fbw    2.000 MHz nfreq 256 nsam 5242880 npoint 214 integ    19 sigma    0.791 bsw 4
Spectrum     17 integration periods
  13.398   15.066   13.622   12.242   14.118   15.096   15.248   14.280   14.738   14.531   14.567   13.921   12.937   13.114   12.609   16.156   12.611   12.743   12.960   13.168   13.539   14.106   14.494   14.622   15.711   15.020   13.684   14.192   13.286   14.472   12.237   14.145   14.496   15.116   13.356   14.214   13.180   13.566   12.251   12.444   14.464   14.896   14.553   13.993   11.982   15.295   14.688   15.668   13.631   13.392   13.008   12.539   14.750   12.514   14.582   13.712   14.344   12.973   15.352   13.793   14.543   15.840   14.752   14.526   14.412   13.247   13.459   13.075   11.649   14.979   14.133   11.487   12.951   15.067   13.711   15.337   13.274   13.235   14.742   13.118   15.328   13.691   14.377   14.922   13.565   12.942   15.126   14.368   13.758   13.771   14.438   12.388   13.308   13.222   15.307   13.656   14.334   14.283   13.095   13.409   13.569   14.087   12.852   12.890   13.781   15.322   13.365   15.200   12.659   13.987   12.303   14.356   14.602   12.760   12.779   12.788   13.919   13.286   12.965   11.970   13.305   14.116   14.683   14.612   12.516   13.881   12.744   15.620   13.198   13.622   13.134   14.547   14.662   13.832   13.101   14.298   12.966   14.010   14.610   14.135   14.071   14.042   14.876   14.027   12.381   14.277   14.492   13.345   14.949   11.979   12.396   12.423   12.445   12.170   13.857   13.673   12.570   12.834   11.693   13.157   13.675   14.051   12.681   13.923   13.738   14.352   13.989   15.470   14.366   14.014   13.649   13.428   14.496   13.653   14.497   13.114   13.280   12.685   12.077   13.486   13.965   13.169   14.296   13.706   14.051   13.133   13.385   12.522   15.327   13.385   13.421   12.724   13.583   11.561   14.994   12.903   12.171   14.210   13.928   12.068   12.162   14.541   11.828   13.085   12.570   12.106   11.515   12.652   12.478   12.417   11.357   14.874   14.811   13.278 
DATE 2017:116:15:03:09 obsn 416 az 301 el 56 freq_MHz  1417.5000 Tsys 165.000 Tant 268.487 vlsr  -32.85 glat  5.869 glon 76.016 azoff 8.85 eloff 0.00 source CygnusA 
Fstart 1416.497 fstop 1418.503 spacing 0.009375 bw    2.400 fbw    2.000 MHz nfreq 256 nsam 5242880 npoint 214 integ    29 sigma    0.628 bsw 5
Spectrum     27 integration periods
  12.353   13.709   12.509   12.116   13.025   13.744   14.109   13.748   13.291   13.247   13.126   12.724   12.612   12.465   12.150   14.513   12.581   12.717   12.249   12.403   12.599   12.915   12.936   13.007   13.415   13.696   11.929   12.848   12.893   13.679   11.953   12.254   12.726   14.248   12.243   14.312   13.027   12.104   11.993   11.732   12.588   13.692   13.850   12.634   12.281   13.509   13.744   14.218   13.413   11.818   12.252   12.634   12.757   11.240   13.432   11.923   12.349   11.932   12.665   12.033   14.010   13.566   14.207   13.990   13.767   12.927   12.132   12.661   10.904   13.762   12.741   11.519   11.458   13.470   12.976   14.777   12.971   12.477   13.149   12.214   14.183   12.893   13.130   13.203   12.965   12.025   13.274   13.294   13.006   13.100   12.839   12.423   11.663   12.852   13.525   11.998   12.125   13.123   12.171   12.723   13.111   12.194   12.715   11.978   13.218   14.281   13.330   14.653   12.375   11.725   11.725   12.950   13.438   12.968   12.095   13.384   13.559   12.116   12.130   11.559   13.489   13.371   14.011   14.335   11.702   13.587   12.967   13.813   12.189   12.241   11.772   13.267   12.832   12.703   11.481   13.275   12.475   13.482   13.571   12.799   13.449   12.915   13.888   12.759   12.237   12.842   14.245   13.348   13.832   11.468   12.139   11.551   12.561   11.898   12.787   12.640   12.220   12.066   11.307   12.246   12.653   13.435   12.105   12.907   12.470   13.308   12.685   14.288   14.418   12.623   12.903   12.934   13.743   12.338   12.269   13.238   12.440   12.649   12.193   13.038   12.808   12.288   12.927   13.522   12.870   12.271   13.034   11.625   13.099   12.305   12.265   12.356   13.049   12.146   13.351   12.375   11.924   13.334   12.396   11.727   12.200   12.859   10.980   12.876   11.913   11.107   10.758   11.263   11.537   12.522   10.567   13.706   13.486   11.741 
DATE 2017:116:15:03:41 obsn 417 az 292 el 55 freq_MHz  1417.5000 Tsys 165.000 Tant 301.762 vlsr  -32.85 glat  5.869 glon 76.016 azoff 0.00 eloff 0.00 source CygnusA 
Fstart 1416.497 fstop 1418.503 spacing 0.009375 bw    2.400 fbw    2.000 MHz nfreq 256 nsam 5242880 npoint 214 integ    40 sigma    0.536 bsw 6
Spectrum     37 integration periods
  13.303   14.617   14.010   13.783   14.355   15.191   15.437   15.306   14.824   14.542   15.032   14.145   13.753   13.715   14.364   14.923   14.129   14.497   13.731   13.859   14.120   14.272   14.329   14.174   14.547   15.239   14.226   14.767   14.404   15.278   13.936   13.775   14.315   15.567   14.328   15.730   14.775   13.541   13.288   13.356   13.772   14.763   15.476   14.217   13.784   14.421   15.392   16.024   14.783   13.971   14.342   14.763   14.161   13.140   14.861   13.813   14.392   13.975   13.833   13.724   14.964   14.529   15.166   15.040   14.511   14.022   13.459   13.911   12.759   14.974   14.006   13.322   13.189   14.871   14.530   15.642   14.183   13.915   14.292   13.810   15.498   14.483   14.482   13.064   14.736   13.471   14.476   14.780   14.552   14.231   14.334   13.995   13.555   14.147   14.988   14.235   13.560   14.450   13.541   14.673   14.291   13.784   14.633   14.619   14.191   15.348   14.233   16.722   13.420   13.599   12.460   13.883   14.500   14.404   13.433   14.769   14.629   13.495   13.896   13.263   14.334   14.696   14.911   14.897   12.792   14.525   14.152   14.695   13.205   13.618   13.276   13.987   14.128   14.347   13.300   14.429   13.900   14.516   15.223   14.248   15.203   14.437   15.138   13.914   13.403   13.651   15.049   14.484   14.880   13.096   13.785   13.166   13.899   13.192   14.166   14.178   13.521   13.069   12.704   13.971   14.227   14.644   13.885   13.811   14.070   14.275   13.555   14.978   15.459   13.416   14.027   14.323   14.073   13.326   13.561   14.371   14.236   13.601   13.422   13.491   13.260   13.447   13.765   14.617   14.092   13.713   13.658   13.248   14.258   13.442   13.853   13.635   14.216   12.843   14.300   13.004   13.853   14.652   13.182   13.468   13.550   13.686   13.072   14.328   13.484   13.021   12.623   12.929   12.766   13.961   12.798   14.614   15.246   13.409 
DATE 2017:116:15:04:05 obsn 418 az 284 el 55 freq_MHz  1417.5000 Tsys 165.000 Tant 272.455 vlsr  -32.85 glat  5.869 glon 76.016 azoff -8.81 eloff 0.00 source CygnusA 
Fstart 1416.497 fstop 1418.503 spacing 0.009375 bw    2.400 fbw    2.000 MHz nfreq 256 nsam 5242880 npoint 214 integ    51 sigma    0.476 bsw 7
Spectrum     47 integration periods
  13.065   14.173   14.246   13.815   13.845   15.180   15.488   14.786   14.436   13.928   14.744   14.081   13.370   13.711   13.967   15.223   13.868   14.205   14.076   13.845   14.462   14.221   14.337   14.084   14.732   14.987   13.861   14.473   14.121   15.055   13.785   14.054   14.042   14.940   14.206   14.968   15.102   13.548   13.438   13.579   13.759   14.463   15.114   13.455   13.971   13.696   15.004   15.727   14.650   14.148   14.182   14.405   14.174   13.638   14.600   14.047   14.058   14.073   13.691   13.739   14.725   13.858   14.152   14.372   13.824   13.966   13.840   13.339   12.784   14.648   14.127   13.252   13.241   14.831   14.302   15.143   13.716   13.880   13.871   13.484   15.133   13.921   14.559   13.018   14.835   13.411   14.351   14.451   13.878   13.973   13.851   13.493   13.114   13.703   14.445   14.210   13.826   14.121   13.217   14.270   14.078   13.606   14.582   14.173   13.496   14.253   13.675   15.904   13.358   13.328   12.670   13.574   14.207   14.385   13.397   14.483   14.119   14.038   13.681   12.834   14.111   14.378   14.394   13.814   12.947   14.545   13.866   13.977   13.342   12.589   12.941   13.619   13.851   14.390   12.863   14.516   13.751   13.974   14.945   13.426   14.821   13.968   14.840   13.498   12.823   13.233   14.429   14.120   13.753   12.728   13.597   12.932   13.542   13.008   13.723   13.654   13.592   13.710   12.377   13.600   14.135   14.373   13.108   14.062   13.738   13.928   13.225   14.425   14.499   13.629   13.565   13.702   13.384   13.089   13.057   13.662   13.760   13.162   13.459   13.326   12.811   13.188   13.604   14.430   14.010   13.362   13.382   12.660   14.024   13.137   13.677   13.385   14.102   12.624   14.057   13.197   13.232   14.070   12.725   13.174   12.824   12.865   12.688   14.308   12.807   12.598   12.148   12.076   12.509   13.238   12.432   13.970   14.301   12.846 
DATE 2017:116:15:04:29 obsn 419 az 292 el 55 freq_MHz  1417.5000 Tsys 165.000 Tant 305.377 vlsr  -32.85 glat  5.869 glon 76.016 azoff 0.00 eloff 0.00 source CygnusA 
Fstart 1416.497 fstop 1418.503 spacing 0.009375 bw    2.400 fbw    2.000 MHz nfreq 256 nsam 5242880 npoint 214 integ    62 sigma    0.432 bsw 8
Spectrum     57 integration periods
  12.668   13.461   13.786   13.304   13.180   14.450   14.625   14.322   13.879   13.460   14.182   13.889   12.863   13.457   13.763   14.876   13.307   13.664   13.888   13.608   13.989   13.878   14.163   13.686   14.596   14.213   13.450   14.314   13.676   14.836   13.077   13.759   13.885   14.464   13.765   14.427   14.548   12.864   12.920   13.158   13.385   13.987   14.725   13.181   13.355   13.372   14.460   14.667   14.379   13.879   13.831   13.787   13.610   12.993   14.137   13.635   13.904   13.966   13.365   13.390   14.144   13.621   14.175   14.023   13.371   13.269   13.586   13.071   12.587   14.481   13.825   12.823   12.565   14.414   14.072   14.772   13.285   13.327   13.115   13.043   14.596   13.698   14.372   13.051   14.530   13.390   13.967   13.630   13.366   13.536   13.248   13.224   12.720   13.092   14.035   13.595   13.263   13.751   12.685   14.057   13.439   13.212   14.189   13.987   12.936   13.566   13.306   15.701   13.263   13.104   12.502   13.355   13.765   13.967   12.705   13.803   13.476   13.464   13.179   12.871   14.072   13.680   13.822   13.244   12.456   13.928   13.183   13.202   12.814   12.133   12.711   12.965   13.145   13.358   12.167   13.706   12.730   13.684   13.919   13.219   14.278   13.526   14.547   12.735   12.524   12.639   14.060   13.091   13.089   12.581   13.337   12.439   13.230   12.330   13.431   12.804   12.791   13.045   11.968   13.264   13.579   13.670   12.545   13.476   13.320   13.487   12.882   13.833   13.969   13.044   13.072   12.977   12.823   12.747   12.816   13.447   13.071   12.762   13.232   13.021   12.570   12.501   13.220   13.649   13.629   12.888   12.897   12.146   13.358   12.551   12.944   12.854   13.743   12.192   13.582   12.453   12.717   13.045   12.354   12.502   12.347   12.043   12.224   13.543   12.377   11.958   11.390   11.509   12.129   12.615   11.694   13.187   13.750   12.543 
DATE 2017:116:15:04:53 obsn 420 az 301 el 55 freq_MHz  1417.5000 Tsys 165.000 Tant 298.060 vlsr  -32.85 glat  5.869 glon 76.016 azoff 8.78 eloff 0.00 source CygnusA 
Fstart 1416.497 fstop 1418.503 spacing 0.009375 bw    2.400 fbw    2.000 MHz nfreq 256 nsam 5242880 npoint 214 integ    73 sigma    0.398 bsw 9
Spectrum     67 integration periods
 455.213  450.505  451.311  448.567  448.926  449.178  450.246  450.259  450.381  450.642  449.534  450.186  449.509  449.865  448.919  450.595  449.128  449.904  448.812  449.969  450.690  449.940  449.973  449.977  449.283  449.619  450.772  449.967  450.418  451.897  450.878  450.134  450.272  449.622  449.091  450.941  450.077  450.433  451.043  451.467  450.761  449.825  450.726  449.796  449.013  450.684  449.656  448.427  449.840  451.094  449.459  448.597  448.389  449.442  449.222  451.792  448.561  449.147  449.290  449.900  449.126  450.727  451.387  449.529  449.856  449.952  449.596  450.043  451.041  450.788  449.494  449.929  449.230  448.448  449.747  450.563  449.178  449.523  448.824  449.090  449.595  450.967  450.794  452.303  449.030  449.821  449.176  448.564  447.998  450.655  449.699  449.532  450.070  448.563  449.162  451.155  448.907  448.557  449.894  449.597  447.833  448.513  449.925  449.246  448.595  449.236  451.453  453.788  448.937  449.575  449.029  449.466  449.936  449.388  449.715  450.419  450.225  448.413  448.565  450.404  449.296  449.797  449.632  450.600  450.454  451.145  450.167  449.911  449.530  450.353  451.169  450.960  450.596  451.075  450.686  450.456  451.171  450.216  450.460  451.649  450.764  449.685  450.335  450.102  449.928  450.841  450.290  450.941  450.966  451.585  449.587  450.613  450.283  450.413  449.162  450.598  451.034  450.636  450.817  450.790  449.894  450.756  451.557  450.016  450.358  450.117  449.929  450.996  450.948  450.212  450.324  451.361  450.003  450.259  450.270  451.275  450.843  450.626  449.567  450.553  450.315  451.484  451.887  451.860  450.357  450.907  450.608  451.641  451.600  450.696  450.802  450.342  451.135  450.771  450.345  451.317  450.626  449.205  450.460  450.383  451.544  451.247  451.381  451.969  452.288  452.093  452.020  451.562  451.711  452.347  449.934  449.213  450.303  449.492 
DATE 2017:116:15:05:06 obsn 421 az 301 el 55 freq_MHz  1417.5000 Tsys 165.000 Tant 267.917 vlsr  -32.85 glat  5.869 glon 76.016 azoff 8.78 eloff 0.00 source CygnusA 
Fstart 1416.497 fstop 1418.503 spacing 0.009375 bw    2.400 fbw    2.000 MHz nfreq 256 nsam 5242880 npoint 214 integ    84 sigma    0.372 bsw 9
Spectrum     77 integration periods
