DATE 2017:063:17:01:23 obsn   0 az  74 el 40 freq_MHz  1420.4000 Tsys 192.762 Tant 19.358 vlsr   22.89 glat -31.232 glon 133.843 source Trigl 
Fstart 1419.397 fstop 1421.403 spacing 0.009375 bw    2.400 fbw    2.000 MHz nfreq 256 nsam 5242880 npoint 214 integ    36 sigma    0.332 bsw 0
Spectrum     33 integration periods
 238.271  237.143  236.015  236.117  236.471  235.856  236.641  236.165  236.807  236.713  236.212  237.052  237.153  236.136  236.661  236.577  236.264  236.559  236.065  236.380  235.957  236.481  236.675  236.240  236.600  235.995  236.078  235.199  236.127  235.521  235.305  235.668  235.992  236.394  235.267  235.288  235.686  236.065  235.804  234.711  235.225  235.506  235.642  236.221  236.844  234.747  235.991  235.253  235.583  235.324  235.724  235.468  235.777  235.225  235.182  235.386  234.661  235.134  235.123  235.436  235.452  235.402  234.761  248.833  240.306  412.300  237.532  235.386  234.784  234.641  234.335  234.474  233.966  234.122  234.705  233.326  234.306  235.066  234.216  233.369  234.247  233.942  234.116  233.592  235.733  233.982  234.555  234.529  235.285  235.711  235.493  236.250  236.186  237.170  240.244  242.833  245.666  248.088  250.111  251.727  248.854  243.644  241.317  238.578  238.464  237.776  238.049  236.577  237.391  236.980  237.371  237.151  236.312  236.608  236.681  236.025  235.805  237.102  235.545  235.101  235.191  236.827  235.074  234.562  234.843  235.503  234.384  235.221  235.463  235.167  234.504  234.264  235.684  233.729  233.206  232.848  233.782  232.963  233.776  233.522  233.356  233.340  233.655  232.824  233.635  234.265  233.821  234.718  233.773  233.846  233.418  233.170  233.385  234.729  234.378  233.718  233.781  233.980  233.509  235.222  234.710  233.653  234.450  233.837  234.607  233.633  234.509  234.669  235.081  234.600  233.458  233.526  233.325  233.892  234.086  234.157  234.719  233.167  233.535  232.736  233.151  233.510  234.256  232.982  233.005  233.559  233.476  232.743  233.438  233.777  234.197  234.094  233.301  233.729  233.598  233.352  233.507  234.162  234.049  232.011  233.979  233.940  232.894  233.006  233.235  233.857  234.143  234.255  234.854  234.573  234.111  233.630  234.715  233.943 
DATE 2017:063:17:01:36 obsn   1 az  74 el 40 freq_MHz  1420.4000 Tsys 192.762 Tant 19.386 vlsr   22.89 glat -31.232 glon 133.843 source Trigl 
Fstart 1419.397 fstop 1421.403 spacing 0.009375 bw    2.400 fbw    2.000 MHz nfreq 256 nsam 5242880 npoint 214 integ    47 sigma    0.290 bsw 0
Spectrum     43 integration periods
 232.292  231.248  230.225  230.560  230.551  230.099  230.856  230.553  230.986  230.990  230.510  231.217  231.420  230.757  230.913  230.738  230.651  231.039  230.489  230.904  230.072  230.826  230.772  230.701  230.591  230.325  230.227  229.621  230.435  229.903  229.615  229.624  230.082  230.428  229.544  229.526  229.679  230.353  229.908  229.177  229.562  229.655  229.503  230.151  231.022  228.876  229.994  229.575  229.875  229.628  229.983  229.569  229.829  229.511  229.811  229.604  229.208  229.485  229.458  229.400  229.840  229.497  229.250  243.210  234.460  407.647  231.948  229.488  228.801  228.572  229.508  228.910  228.364  228.455  228.627  227.802  228.665  229.022  228.481  228.057  228.858  228.213  228.551  228.066  229.625  228.508  229.221  229.016  229.306  229.756  230.117  230.454  230.387  231.617  234.289  236.904  240.125  242.345  244.447  246.045  243.269  238.371  235.844  233.375  232.792  232.130  231.977  231.007  231.467  231.176  231.480  231.311  230.560  230.620  230.605  230.187  230.129  231.284  230.143  229.589  229.678  230.630  229.611  228.961  229.335  229.915  228.605  229.440  229.681  229.293  228.683  228.603  229.969  228.134  227.858  227.426  228.105  227.357  228.067  227.888  227.725  227.784  227.826  227.255  228.024  228.402  227.975  228.714  227.953  228.152  227.348  227.534  227.652  228.724  228.821  227.857  227.732  228.281  227.824  229.513  229.172  228.119  228.736  228.144  228.856  228.378  228.680  228.495  228.986  228.858  227.577  227.712  227.877  228.099  228.214  228.308  228.714  227.684  227.815  226.981  227.361  227.589  228.241  227.508  227.427  227.733  227.707  227.297  227.613  228.178  228.592  228.375  227.709  228.100  227.692  227.392  227.784  227.956  228.170  226.445  228.338  228.106  227.246  227.223  227.764  227.965  228.219  228.396  229.123  228.846  228.330  227.907  228.777  228.221 
DATE 2017:063:17:01:49 obsn   2 az  74 el 40 freq_MHz  1420.4000 Tsys 192.762 Tant 20.028 vlsr   22.89 glat -31.232 glon 133.843 source Trigl 
Fstart 1419.397 fstop 1421.403 spacing 0.009375 bw    2.400 fbw    2.000 MHz nfreq 256 nsam 5242880 npoint 214 integ    58 sigma    0.262 bsw 0
Spectrum     53 integration periods
 228.992  227.992  226.674  227.124  227.036  226.841  227.426  226.931  227.458  227.254  227.204  227.700  227.940  227.165  227.576  226.977  227.086  227.421  227.113  227.451  226.456  226.932  227.305  227.274  227.207  226.820  226.831  226.119  226.866  226.477  225.966  226.111  226.431  226.771  226.002  226.347  226.269  226.632  226.312  225.584  226.071  226.004  225.965  226.357  227.189  225.546  226.534  225.938  226.293  226.171  226.451  225.978  226.134  226.094  226.349  225.920  225.613  225.962  225.912  225.958  226.146  225.927  225.873  239.687  230.786  404.699  228.482  225.963  225.182  225.196  225.798  225.208  224.864  224.788  225.273  224.182  225.237  225.368  224.911  224.614  225.211  224.821  224.911  224.580  226.007  225.029  225.752  225.490  225.896  226.267  226.477  226.657  226.764  228.363  230.841  233.640  237.003  238.809  241.136  242.572  239.893  235.101  232.116  229.960  229.148  228.625  228.342  227.313  227.793  227.518  227.780  227.538  227.176  227.030  226.997  226.528  226.527  227.786  226.899  225.957  226.435  227.065  226.300  225.686  226.115  226.410  225.152  225.753  226.346  225.799  224.945  225.061  226.535  224.362  224.378  224.183  224.451  224.004  224.553  224.357  224.250  224.168  224.368  223.893  224.577  224.731  224.732  224.945  224.441  224.628  223.325  224.094  224.198  225.023  225.332  224.623  224.325  224.484  224.346  225.864  225.633  224.700  224.986  224.435  224.946  224.797  225.101  224.973  225.473  225.250  224.403  224.326  224.352  224.588  224.685  224.712  225.205  224.058  224.267  223.543  223.839  224.212  224.642  224.111  224.164  224.228  224.027  223.796  224.041  224.810  224.950  224.896  224.264  224.521  224.319  224.012  224.000  224.442  224.532  222.959  224.962  224.553  223.947  224.017  224.376  224.598  224.776  225.000  225.434  225.359  224.967  224.768  225.294  224.555 
DATE 2017:063:17:02:02 obsn   3 az  74 el 40 freq_MHz  1420.4000 Tsys 192.762 Tant 19.198 vlsr   22.89 glat -31.232 glon 133.843 source Trigl 
Fstart 1419.397 fstop 1421.403 spacing 0.009375 bw    2.400 fbw    2.000 MHz nfreq 256 nsam 5242880 npoint 214 integ    69 sigma    0.240 bsw 0
Spectrum     63 integration periods
 226.276  225.518  224.403  224.674  224.743  224.393  225.054  224.437  225.119  224.971  224.644  225.350  225.413  224.682  225.070  224.843  224.846  225.155  224.764  224.894  224.085  224.454  225.049  224.778  224.883  224.330  224.408  223.714  224.410  224.132  223.706  223.701  224.176  224.217  223.687  224.141  223.827  224.186  224.030  223.246  223.725  223.714  223.513  223.920  224.490  223.342  224.315  223.664  224.053  223.792  224.136  223.490  223.718  223.568  223.802  223.292  223.254  223.429  223.506  223.438  223.739  223.453  223.577  237.288  228.189  402.663  226.258  223.561  222.716  222.903  223.255  222.777  222.471  222.335  222.811  221.868  222.721  222.764  222.534  222.135  222.778  222.555  222.440  222.171  223.360  222.744  223.295  223.006  223.550  223.794  224.205  224.376  224.597  225.973  228.505  231.535  234.461  236.467  238.707  240.076  237.463  232.548  229.695  227.639  226.883  226.211  225.994  224.869  225.348  225.005  225.375  225.077  224.764  224.533  224.460  224.172  223.982  225.114  224.374  223.544  224.291  224.595  224.054  223.326  223.570  223.885  222.859  223.390  223.722  223.227  222.620  222.661  224.095  221.945  222.040  221.817  221.969  221.560  222.004  221.900  221.831  221.871  222.015  221.502  222.216  222.309  222.221  222.484  221.895  222.003  220.473  221.804  221.894  222.560  222.889  222.125  222.053  222.176  222.049  223.426  223.255  222.500  222.543  221.993  222.674  222.436  222.576  222.556  222.881  222.651  222.019  221.817  221.957  222.118  222.079  222.267  222.595  221.572  221.839  221.235  221.389  221.700  222.155  221.844  221.697  221.772  221.608  221.660  221.726  222.203  222.468  222.335  221.693  221.948  221.877  221.454  221.631  222.103  222.175  220.722  222.464  222.060  221.655  221.605  222.043  222.089  222.399  222.512  223.061  222.943  222.510  222.373  222.976  222.071 
DATE 2017:063:17:02:15 obsn   4 az  74 el 40 freq_MHz  1420.4000 Tsys 192.762 Tant 19.535 vlsr   22.89 glat -31.232 glon 133.843 source Trigl 
Fstart 1419.397 fstop 1421.403 spacing 0.009375 bw    2.400 fbw    2.000 MHz nfreq 256 nsam 5242880 npoint 214 integ    80 sigma    0.223 bsw 0
Spectrum     73 integration periods
 224.418  223.742  222.554  222.772  223.072  222.635  223.215  222.722  223.469  223.006  222.958  223.364  223.455  222.859  223.258  223.153  222.944  223.375  223.104  223.191  222.423  222.673  223.108  223.021  223.081  222.518  222.761  221.965  222.478  222.181  221.900  221.977  222.266  222.372  221.969  222.394  221.931  222.300  222.256  221.558  222.015  221.924  221.915  222.181  222.507  221.765  222.459  221.902  222.387  222.132  222.488  221.739  221.985  221.688  221.824  221.421  221.478  221.786  221.665  221.554  221.993  221.606  221.637  235.588  226.467  402.649  224.375  221.992  221.060  221.161  220.838  220.852  220.561  220.408  221.051  220.153  221.057  220.899  220.732  220.376  221.011  220.704  220.755  220.551  221.604  221.007  221.515  221.425  221.798  222.059  222.429  222.642  222.845  224.119  226.687  229.675  232.625  234.669  237.034  238.417  235.668  230.604  227.739  225.983  225.099  224.312  224.256  223.153  223.473  223.223  223.419  223.280  222.895  222.717  222.683  222.382  222.144  223.125  222.598  221.902  222.528  222.770  222.280  221.576  221.972  222.111  221.112  221.643  222.058  221.596  220.760  220.824  222.432  220.231  220.250  220.126  220.283  219.677  220.155  220.051  220.106  220.131  220.352  219.635  220.378  220.580  220.427  220.630  220.106  220.287  219.007  220.128  220.210  220.799  221.063  220.394  220.206  220.247  220.397  221.455  221.205  220.671  220.747  220.379  220.886  220.683  220.798  220.658  220.966  220.823  220.228  220.188  220.163  220.184  220.148  220.334  220.761  219.919  220.118  219.421  219.659  219.906  220.183  220.063  220.006  219.982  219.830  220.169  219.938  220.548  220.520  220.288  219.874  220.209  220.050  219.759  219.705  220.397  220.297  218.892  220.595  220.204  219.816  219.961  220.150  220.273  220.661  220.876  221.055  220.961  220.851  220.552  220.981  220.497 
DATE 2017:063:17:02:28 obsn   5 az  74 el 40 freq_MHz  1420.4000 Tsys 192.762 Tant 19.715 vlsr   22.89 glat -31.232 glon 133.843 source Trigl 
Fstart 1419.397 fstop 1421.403 spacing 0.009375 bw    2.400 fbw    2.000 MHz nfreq 256 nsam 5242880 npoint 214 integ    91 sigma    0.209 bsw 0
Spectrum     83 integration periods
 223.001  222.363  221.335  221.368  221.782  221.251  221.881  221.575  222.185  221.849  221.568  221.985  222.218  221.535  221.965  221.900  221.513  222.002  221.747  221.917  221.175  221.344  221.618  221.677  221.797  221.141  221.403  220.747  221.094  220.769  220.748  220.727  220.980  221.029  220.704  221.314  220.599  221.007  221.054  220.325  220.848  220.624  220.594  220.941  221.088  220.500  221.181  220.685  221.120  220.747  221.126  220.340  220.684  220.286  220.580  220.162  220.076  220.410  220.463  220.219  220.721  220.293  220.319  234.237  224.939  401.733  223.028  220.703  219.842  219.836  219.424  219.678  219.365  219.118  219.662  218.930  219.650  219.648  219.461  219.059  219.758  219.492  219.571  219.376  220.151  219.714  220.158  220.237  220.438  220.773  221.132  221.322  221.587  222.769  225.417  228.404  231.259  233.290  235.745  237.014  234.390  229.338  226.534  224.880  223.926  222.977  222.744  221.862  222.159  221.919  222.000  221.957  221.749  221.519  221.491  221.136  220.808  221.780  221.307  220.581  221.316  221.425  220.954  220.411  220.625  220.799  219.779  220.377  220.717  220.323  219.384  219.309  221.221  218.814  218.961  218.744  218.937  218.339  218.763  218.637  218.765  218.712  219.070  218.323  218.975  219.179  219.147  219.413  218.924  219.109  217.752  218.683  218.921  219.499  219.831  219.227  218.932  218.975  219.174  220.076  219.888  219.450  219.378  218.983  219.445  219.291  219.496  219.245  219.576  219.495  218.904  218.897  218.793  218.826  218.897  219.125  219.381  218.535  218.771  218.081  218.308  218.606  218.879  218.677  218.687  218.650  218.574  218.880  218.576  219.110  219.115  218.916  218.581  218.829  218.690  218.406  218.370  218.838  218.899  217.574  219.205  218.783  218.481  218.686  218.822  218.941  219.288  219.435  219.536  219.507  219.508  219.182  219.700  219.115 
DATE 2017:063:17:02:41 obsn   6 az  74 el 40 freq_MHz  1420.4000 Tsys 192.762 Tant 19.995 vlsr   22.89 glat -31.232 glon 133.843 source Trigl 
Fstart 1419.397 fstop 1421.403 spacing 0.009375 bw    2.400 fbw    2.000 MHz nfreq 256 nsam 5242880 npoint 214 integ   102 sigma    0.198 bsw 0
Spectrum     93 integration periods
 221.937  221.459  220.298  220.386  220.754  220.317  220.834  220.474  221.071  220.800  220.559  221.031  221.162  220.534  220.910  220.935  220.604  221.019  220.740  220.836  220.107  220.344  220.578  220.652  220.720  220.071  220.366  219.861  220.130  219.884  219.855  219.654  219.963  219.970  219.622  220.226  219.592  219.931  219.985  219.310  219.965  219.612  219.614  219.841  220.080  219.529  220.137  219.688  220.120  219.859  220.154  219.446  219.860  219.324  219.476  219.167  219.105  219.365  219.399  219.225  219.669  219.204  219.303  233.314  223.817  401.183  222.047  219.610  218.913  218.805  218.894  218.720  218.242  218.213  218.621  217.996  218.670  218.642  218.525  217.949  218.667  218.501  218.591  218.382  219.099  218.808  219.153  219.240  219.385  219.742  220.171  220.335  220.568  221.875  224.305  227.496  230.361  232.315  234.634  236.022  233.361  228.255  225.463  223.752  222.982  222.031  221.813  220.734  221.045  220.966  220.946  220.944  220.568  220.511  220.528  220.180  219.856  220.724  220.228  219.481  220.362  220.374  219.974  219.474  219.593  219.701  218.762  219.277  219.712  219.400  218.335  218.297  220.278  217.823  217.980  217.665  217.969  217.373  217.736  217.592  217.826  217.720  217.954  217.369  218.010  218.078  218.152  218.274  217.880  218.079  216.640  217.582  217.933  218.503  218.779  218.009  217.985  217.969  218.210  218.893  218.850  218.248  218.376  218.029  218.363  218.149  218.329  218.294  218.392  218.407  217.857  217.904  217.730  217.763  217.857  218.026  218.226  217.461  217.786  217.031  217.328  217.572  217.880  217.696  217.670  217.697  217.523  217.887  217.656  218.193  218.073  217.814  217.494  217.752  217.721  217.336  217.399  217.729  217.816  216.470  218.217  217.629  217.414  217.676  217.753  217.938  218.179  218.413  218.395  218.619  218.590  218.084  218.768  218.112 
DATE 2017:063:17:02:54 obsn   7 az  74 el 40 freq_MHz  1420.4000 Tsys 192.762 Tant 19.949 vlsr   22.89 glat -31.232 glon 133.843 source Trigl 
Fstart 1419.397 fstop 1421.403 spacing 0.009375 bw    2.400 fbw    2.000 MHz nfreq 256 nsam 5242880 npoint 214 integ   113 sigma    0.188 bsw 0
Spectrum    103 integration periods
 221.178  220.781  219.533  219.613  219.831  219.485  220.109  219.632  220.205  220.099  219.814  220.247  220.473  219.784  220.110  220.090  219.796  220.180  219.917  219.940  219.354  219.597  219.758  219.810  219.902  219.273  219.645  218.973  219.379  219.133  218.970  218.941  219.088  219.137  218.835  219.406  218.747  219.101  219.136  218.613  219.137  218.765  218.858  219.098  219.171  218.848  219.264  218.966  219.186  218.988  219.334  218.636  219.079  218.518  218.601  218.459  218.257  218.624  218.449  218.290  218.765  218.392  218.511  232.536  223.020  400.976  221.228  218.749  218.192  217.811  217.777  217.895  217.420  217.432  217.830  217.182  217.835  217.761  217.798  217.041  217.775  217.665  217.778  217.678  218.281  218.006  218.476  218.416  218.593  218.892  219.307  219.641  219.845  221.085  223.483  226.795  229.494  231.654  233.890  235.318  232.520  227.552  224.706  222.971  222.245  221.107  220.875  219.961  220.182  220.124  220.085  220.014  219.847  219.726  219.710  219.402  219.022  219.883  219.315  218.745  219.551  219.523  219.122  218.620  218.760  218.807  218.112  218.518  218.944  218.666  217.509  217.382  219.535  216.958  217.158  216.868  217.146  216.628  216.932  216.865  217.139  216.898  217.142  216.575  217.241  217.251  217.479  217.496  217.011  217.303  215.856  216.824  217.145  217.613  218.043  217.323  217.218  217.215  217.450  218.150  218.086  217.446  217.529  217.170  217.617  217.301  217.432  217.494  217.568  217.458  217.084  217.088  216.888  216.955  217.012  217.137  217.334  216.648  217.034  216.296  216.560  216.844  217.105  216.842  216.719  216.819  216.787  216.859  216.846  217.441  217.151  217.002  216.790  217.039  216.786  216.524  216.696  216.937  217.032  215.722  217.307  216.828  216.667  216.771  216.953  217.103  217.328  217.598  217.537  217.767  217.750  217.288  217.919  217.242 
DATE 2017:063:17:03:08 obsn   8 az  74 el 40 freq_MHz  1420.4000 Tsys 192.762 Tant 19.647 vlsr   22.89 glat -31.232 glon 133.843 source Trigl 
Fstart 1419.397 fstop 1421.403 spacing 0.009375 bw    2.400 fbw    2.000 MHz nfreq 256 nsam 5242880 npoint 214 integ   123 sigma    0.179 bsw 0
Spectrum    113 integration periods
